# hvsrpy output version 0.5.2
# File Name (),NA
# Method (),geometric-mean
# Azimuth (),0
# Window Length (s),1800.0
# Total Number of Windows (),48
# Frequency Domain Window Rejection Performed (),True
# Lower frequency limit for peaks (Hz),0.006
# Upper frequency limit for peaks (Hz),9.9
# Number of Standard Deviations Used for Rejection () [n],2
# Number of Accepted Windows (),43
# Number of Rejected Windows (),5
# Distribution of f0 (),lognormal
# Median f0 (Hz) [LMf0],0.0108
# Lognormal standard deviation f0 () [SigmaLNf0],0.3819
# 68 % Confidence Interval f0 (Hz),0.0074,to,0.0158
# Median T0 (s) [LMT0],92.6731
# Lognormal standard deviation T0 () [SigmaLNT0],0.3819
# 68 % Confidence Interval T0 (s),63.2542,to,135.7744
# Median Curve Distribution (),lognormal
# Median Curve Peak Frequency (Hz) [f0mc],0.0089
# Median Curve Peak Amplitude (),7.974
# Frequency (Hz),Median Curve,1 STD Below Median Curve,1 STD Above Median Curve
0.005,7.4615,2.3614,23.5762
0.0052,7.0344,2.4466,20.2254
0.0054,6.7651,2.4699,18.5296
0.0056,6.7348,2.5252,17.9619
0.0058,6.7229,2.5951,17.4168
0.0061,6.8212,2.6482,17.5698
0.0063,7.2057,2.8347,18.3163
0.0065,7.4741,2.9513,18.9279
0.0068,6.9923,2.8715,17.0271
0.0071,6.5046,2.7618,15.3195
0.0073,6.5082,2.9121,14.5452
0.0076,6.8965,3.1531,15.0843
0.0079,7.2051,3.309,15.6886
0.0082,7.3031,3.4291,15.5535
0.0085,7.6065,3.6742,15.7476
0.0089,7.974,3.8536,16.5002
0.0092,7.8069,3.8034,16.0245
0.0096,7.301,3.5804,14.888
0.0099,6.9761,3.4244,14.2118
0.0103,6.9954,3.4653,14.1215
0.0107,7.1629,3.4419,14.9064
0.0112,7.2336,3.3163,15.778
0.0116,7.2458,3.379,15.5377
0.012,7.2084,3.6105,14.3916
0.0125,7.1889,3.7822,13.6642
0.013,7.2955,3.9101,13.612
0.0135,7.4205,3.966,13.8842
0.014,7.3383,3.8572,13.961
0.0146,7.2546,3.8083,13.8198
0.0151,7.4066,3.9548,13.8712
0.0157,7.6505,4.2646,13.7249
0.0163,7.7464,4.4698,13.425
0.017,7.6795,4.3443,13.5751
0.0176,7.7323,4.2444,14.0864
0.0183,7.8223,4.3703,14.0007
0.019,7.692,4.4944,13.1644
0.0198,7.4936,4.4727,12.5549
0.0205,7.4736,4.3712,12.7778
0.0213,7.5187,4.1969,13.4696
0.0222,7.4196,3.9177,14.0518
0.023,7.2214,3.7355,13.96
0.0239,7.0664,3.6983,13.5019
0.0249,6.9634,3.6946,13.1245
0.0258,6.8855,3.799,12.4795
0.0268,6.7858,3.9919,11.5352
0.0279,6.6452,4.0195,10.9861
0.029,6.5447,3.8099,11.2425
0.0301,6.5426,3.6522,11.7205
0.0313,6.7026,3.6743,12.2268
0.0325,6.9606,3.7714,12.8469
0.0338,7.1331,3.9106,13.0111
0.0351,7.1624,4.0442,12.685
0.0364,7.0612,3.9936,12.4851
0.0379,6.8648,3.7578,12.5407
0.0393,6.6678,3.5469,12.5346
0.0409,6.5248,3.484,12.2197
0.0425,6.3513,3.4548,11.6761
0.0441,6.1225,3.3388,11.2269
0.0458,5.9235,3.1779,11.0412
0.0476,5.7579,3.0593,10.8369
0.0495,5.5354,2.9564,10.3643
0.0514,5.2222,2.8074,9.7139
0.0534,4.8624,2.6353,8.9719
0.0555,4.4839,2.4462,8.2188
0.0576,4.1145,2.2577,7.4983
0.0599,3.8264,2.0948,6.9894
0.0622,3.6426,1.9791,6.7045
0.0646,3.517,1.9067,6.4874
0.0671,3.3878,1.8453,6.2194
0.0698,3.1969,1.7555,5.8216
0.0725,2.9295,1.626,5.2778
0.0753,2.6334,1.4712,4.7137
0.0782,2.368,1.3244,4.234
0.0813,2.1439,1.2211,3.764
0.0844,1.9271,1.144,3.2462
0.0877,1.7141,1.0559,2.7826
0.0911,1.5341,0.9672,2.4334
0.0947,1.3889,0.8969,2.1508
0.0984,1.2736,0.8479,1.9128
0.1022,1.204,0.8369,1.7323
0.1062,1.1933,0.8787,1.6206
0.1103,1.2233,0.9492,1.5765
0.1146,1.2511,1.0013,1.5631
0.1191,1.2562,1.0342,1.5259
0.1237,1.2527,1.0663,1.4718
0.1285,1.2514,1.0953,1.4297
0.1335,1.2567,1.1232,1.4061
0.1387,1.2713,1.148,1.4079
0.1441,1.2915,1.1747,1.4199
0.1497,1.3092,1.207,1.4201
0.1556,1.3221,1.2237,1.4285
0.1616,1.333,1.2306,1.444
0.1679,1.3384,1.2326,1.4533
0.1744,1.3291,1.2224,1.4451
0.1812,1.2991,1.1938,1.4138
0.1883,1.2611,1.1628,1.3678
0.1956,1.2307,1.1333,1.3364
0.2032,1.2151,1.1121,1.3275
0.2112,1.2192,1.1193,1.328
0.2194,1.244,1.1477,1.3483
0.2279,1.2738,1.1787,1.3766
0.2368,1.2882,1.1938,1.3901
0.246,1.2932,1.1944,1.4003
0.2556,1.3172,1.2217,1.4202
0.2655,1.3804,1.2901,1.477
0.2759,1.4781,1.3814,1.5815
0.2866,1.5843,1.4851,1.69
0.2978,1.6769,1.5736,1.7869
0.3094,1.7549,1.6414,1.8763
0.3214,1.8132,1.6881,1.9476
0.3339,1.8214,1.7003,1.9511
0.3469,1.7766,1.6603,1.901
0.3604,1.7275,1.6112,1.8522
0.3745,1.7104,1.5996,1.8289
0.3891,1.7186,1.6252,1.8173
0.4042,1.7388,1.658,1.8234
0.4199,1.7736,1.6793,1.8731
0.4363,1.8103,1.7019,1.9257
0.4533,1.8172,1.7111,1.93
0.4709,1.7919,1.6816,1.9095
0.4893,1.7754,1.6703,1.887
0.5083,1.8027,1.709,1.9015
0.5281,1.8558,1.7621,1.9544
0.5487,1.8896,1.792,1.9925
0.57,1.8904,1.7931,1.993
0.5922,1.8873,1.7894,1.9907
0.6153,1.906,1.8045,2.0131
0.6392,1.9417,1.8483,2.0397
0.6641,1.9811,1.8924,2.074
0.69,2.0083,1.9154,2.1058
0.7168,2.0194,1.9262,2.1171
0.7447,2.044,1.9604,2.1312
0.7737,2.0943,1.9979,2.1953
0.8039,2.135,2.0073,2.2708
0.8352,2.1528,2.0251,2.2885
0.8677,2.1813,2.0788,2.2889
0.9015,2.2375,2.135,2.3449
0.9366,2.2913,2.1973,2.3894
0.973,2.2949,2.1798,2.4161
1.0109,2.2442,2.0948,2.4043
1.0503,2.1985,2.0569,2.3499
1.0912,2.2058,2.0679,2.3529
1.1336,2.2573,2.0918,2.4359
1.1778,2.326,2.1276,2.5429
1.2236,2.3947,2.2037,2.6022
1.2713,2.4319,2.2454,2.6338
1.3208,2.414,2.1488,2.7119
1.3722,2.3579,2.0136,2.761
1.4256,2.2902,1.9197,2.7323
1.4811,2.2194,1.8684,2.6363
1.5388,2.1428,1.7994,2.5517
1.5987,2.0533,1.6797,2.51
1.661,1.9535,1.5494,2.4631
1.7256,1.8666,1.4539,2.3965
1.7928,1.8198,1.4098,2.3489
1.8626,1.8189,1.4138,2.3399
1.9351,1.8338,1.4387,2.3375
2.0105,1.8231,1.4429,2.3034
2.0888,1.7741,1.4076,2.236
2.1701,1.7026,1.3553,2.1387
2.2546,1.626,1.3029,2.0293
2.3424,1.5509,1.2481,1.9272
2.4336,1.4792,1.1873,1.843
2.5283,1.4119,1.1194,1.7808
2.6267,1.35,1.0496,1.7365
2.729,1.2987,0.991,1.702
2.8353,1.2695,0.9532,1.6908
2.9456,1.2648,0.9394,1.7028
3.0603,1.2694,0.9499,1.6963
3.1795,1.2692,0.9758,1.6509
3.3033,1.2578,0.9926,1.5938
3.4319,1.2326,0.9839,1.5443
3.5655,1.1988,0.9662,1.4874
3.7043,1.1664,0.952,1.4289
3.8486,1.1409,0.9383,1.3871
3.9984,1.1209,0.924,1.3598
4.1541,1.1067,0.916,1.3372
4.3158,1.1022,0.9185,1.3228
4.4838,1.1063,0.9233,1.3256
4.6584,1.1116,0.9212,1.3414
4.8398,1.1127,0.9176,1.3492
5.0282,1.1134,0.9217,1.345
5.224,1.1232,0.9354,1.3486
5.4274,1.1474,0.9519,1.3832
5.6387,1.1839,0.9674,1.4487
5.8582,1.2242,0.9881,1.5167
6.0863,1.2553,1.0124,1.5565
6.3233,1.2639,1.0247,1.559
6.5695,1.2532,1.0187,1.5418
6.8253,1.2441,1.0125,1.5286
7.091,1.2521,1.022,1.5341
7.3671,1.2716,1.0422,1.5515
7.6539,1.2866,1.0673,1.551
7.9519,1.2938,1.0887,1.5376
8.2615,1.299,1.0948,1.5413
8.5832,1.2995,1.0883,1.5518
8.9173,1.2888,1.071,1.5509
9.2645,1.2703,1.0419,1.5489
9.6252,1.2534,1.011,1.554
10.0,1.2424,0.9887,1.5612
