# hvsrpy output version 0.5.2
# File Name (),NA
# Method (),geometric-mean
# Azimuth (),0
# Window Length (s),1200.0
# Total Number of Windows (),72
# Frequency Domain Window Rejection Performed (),True
# Lower frequency limit for peaks (Hz),0.1
# Upper frequency limit for peaks (Hz),5.0
# Number of Standard Deviations Used for Rejection () [n],2
# Number of Accepted Windows (),33
# Number of Rejected Windows (),39
# Distribution of f0 (),lognormal
# Median f0 (Hz) [LMf0],0.4317
# Lognormal standard deviation f0 () [SigmaLNf0],0.0371
# 68 % Confidence Interval f0 (Hz),0.416,to,0.448
# Median T0 (s) [LMT0],2.3165
# Lognormal standard deviation T0 () [SigmaLNT0],0.0371
# 68 % Confidence Interval T0 (s),2.2321,to,2.4041
# Median Curve Distribution (),lognormal
# Median Curve Peak Frequency (Hz) [f0mc],0.4302
# Median Curve Peak Amplitude (),2.3299
# Frequency (Hz),Median Curve,1 STD Below Median Curve,1 STD Above Median Curve
0.05,1.4442,0.7031,2.9667
0.0512,1.4467,0.6906,3.0307
0.0524,1.4379,0.6797,3.042
0.0536,1.4359,0.6806,3.0291
0.0548,1.449,0.6994,3.0018
0.0561,1.4729,0.7312,2.9669
0.0574,1.4939,0.7596,2.9382
0.0588,1.4962,0.7708,2.904
0.0602,1.4777,0.7664,2.8488
0.0616,1.4558,0.7587,2.7934
0.063,1.4525,0.7611,2.7718
0.0645,1.4771,0.7818,2.7905
0.066,1.5208,0.8208,2.8179
0.0675,1.5635,0.8679,2.8165
0.0691,1.5874,0.9068,2.7789
0.0707,1.5881,0.9281,2.7174
0.0724,1.5749,0.937,2.6474
0.0741,1.5618,0.9451,2.5809
0.0758,1.5526,0.9551,2.5237
0.0776,1.538,0.9561,2.474
0.0794,1.5044,0.9359,2.4183
0.0813,1.4506,0.8958,2.3491
0.0832,1.3912,0.8499,2.277
0.0851,1.3441,0.8145,2.2179
0.0871,1.3201,0.7983,2.1831
0.0892,1.3209,0.8022,2.1749
0.0913,1.3387,0.8222,2.1798
0.0934,1.3579,0.849,2.1717
0.0956,1.3615,0.8711,2.1279
0.0978,1.3424,0.8812,2.0452
0.1001,1.3071,0.88,1.9413
0.1025,1.2696,0.8734,1.8454
0.1049,1.2432,0.8671,1.7826
0.1073,1.233,0.8658,1.7559
0.1098,1.2344,0.8732,1.7451
0.1124,1.2405,0.8893,1.7303
0.115,1.2471,0.9114,1.7065
0.1177,1.2539,0.9372,1.6776
0.1205,1.2619,0.9661,1.6481
0.1233,1.2707,0.9982,1.6176
0.1262,1.2776,1.0334,1.5796
0.1291,1.2787,1.0695,1.5288
0.1322,1.2713,1.0996,1.4698
0.1352,1.2564,1.1142,1.4167
0.1384,1.2373,1.1098,1.3794
0.1417,1.2168,1.0933,1.3542
0.145,1.1962,1.0715,1.3354
0.1484,1.1764,1.0487,1.3196
0.1518,1.1581,1.0285,1.3041
0.1554,1.1421,1.011,1.2902
0.159,1.1293,0.9946,1.2822
0.1628,1.1213,0.9808,1.2819
0.1666,1.1196,0.9751,1.2854
0.1705,1.1241,0.9821,1.2867
0.1745,1.1341,1.0003,1.2858
0.1785,1.1494,1.0239,1.2903
0.1827,1.1712,1.0502,1.3062
0.187,1.2006,1.0828,1.3313
0.1914,1.2376,1.1238,1.363
0.1959,1.2811,1.1677,1.4055
0.2004,1.3285,1.2064,1.4629
0.2051,1.3755,1.24,1.5258
0.2099,1.4171,1.2729,1.5777
0.2149,1.4505,1.3041,1.6133
0.2199,1.4762,1.328,1.6409
0.225,1.4967,1.3436,1.6673
0.2303,1.5132,1.3543,1.6908
0.2357,1.5242,1.3604,1.7078
0.2412,1.5278,1.3617,1.7142
0.2469,1.5264,1.3604,1.7127
0.2526,1.5298,1.3598,1.721
0.2585,1.551,1.3669,1.7598
0.2646,1.5981,1.3943,1.8316
0.2708,1.6674,1.4476,1.9204
0.2771,1.742,1.5139,2.0045
0.2836,1.8004,1.5683,2.0668
0.2903,1.8297,1.5949,2.099
0.2971,1.8358,1.6002,2.1061
0.304,1.8373,1.603,2.1057
0.3111,1.8507,1.6158,2.1197
0.3184,1.882,1.639,2.161
0.3259,1.9269,1.6692,2.2244
0.3335,1.9748,1.7018,2.2916
0.3413,2.014,1.729,2.3459
0.3493,2.0364,1.7436,2.3783
0.3575,2.0425,1.747,2.388
0.3658,2.042,1.7476,2.386
0.3744,2.0494,1.7546,2.3937
0.3832,2.0763,1.7734,2.431
0.3921,2.1261,1.8082,2.4999
0.4013,2.1916,1.8591,2.5836
0.4107,2.2581,1.9171,2.6597
0.4203,2.3085,1.9651,2.7118
0.4302,2.3299,1.9872,2.7317
0.4402,2.3187,1.9784,2.7175
0.4506,2.279,1.9454,2.6698
0.4611,2.2178,1.898,2.5914
0.4719,2.1425,1.8432,2.4904
0.4829,2.0616,1.7856,2.3802
0.4942,1.9852,1.7299,2.2782
0.5058,1.9227,1.6816,2.1982
0.5177,1.8773,1.6451,2.1423
0.5298,1.8443,1.6189,2.1009
0.5422,1.8137,1.5953,2.0619
0.5549,1.7783,1.5679,2.017
0.5679,1.738,1.5368,1.9655
0.5812,1.698,1.5068,1.9134
0.5948,1.6639,1.482,1.868
0.6087,1.6393,1.4656,1.8336
0.6229,1.6262,1.4591,1.8125
0.6375,1.626,1.4614,1.8093
0.6525,1.6401,1.4714,1.8282
0.6677,1.6685,1.4913,1.8666
0.6834,1.7085,1.5208,1.9193
0.6994,1.7548,1.5512,1.9851
0.7157,1.8012,1.5742,2.0609
0.7325,1.8431,1.591,2.1351
0.7496,1.8786,1.6076,2.1953
0.7672,1.9068,1.6257,2.2366
0.7851,1.9255,1.6406,2.2598
0.8035,1.9298,1.6453,2.2635
0.8223,1.9165,1.6366,2.2443
0.8416,1.8895,1.6183,2.2061
0.8613,1.8615,1.5991,2.167
0.8815,1.848,1.5884,2.15
0.9021,1.8589,1.5926,2.1697
0.9232,1.8942,1.6133,2.224
0.9448,1.9447,1.6468,2.2966
0.9669,1.9977,1.6853,2.368
0.9896,2.0434,1.7204,2.427
1.0128,2.0768,1.7451,2.4716
1.0365,2.0956,1.756,2.5009
1.0607,2.0983,1.7536,2.5109
1.0856,2.0853,1.7402,2.4989
1.111,2.0588,1.7188,2.4661
1.137,2.0215,1.6931,2.4134
1.1636,1.9761,1.6668,2.3428
1.1908,1.928,1.6419,2.2639
1.2187,1.8854,1.6206,2.1935
1.2473,1.8573,1.6062,2.1476
1.2765,1.8482,1.6021,2.1322
1.3063,1.8562,1.6084,2.1423
1.3369,1.8749,1.6221,2.1671
1.3682,1.8979,1.6395,2.197
1.4003,1.921,1.6566,2.2276
1.433,1.9418,1.6683,2.2601
1.4666,1.959,1.6708,2.297
1.5009,1.9737,1.6657,2.3385
1.5361,1.9884,1.6593,2.3828
1.572,2.0046,1.6562,2.4263
1.6088,2.0196,1.6567,2.4621
1.6465,2.0275,1.6568,2.4813
1.685,2.024,1.6525,2.479
1.7245,2.01,1.6441,2.4574
1.7649,1.9919,1.636,2.4251
1.8062,1.9771,1.6319,2.3953
1.8485,1.9709,1.6324,2.3795
1.8917,1.9734,1.6364,2.3798
1.936,1.9792,1.6422,2.3853
1.9813,1.9783,1.6457,2.3781
2.0277,1.9611,1.6407,2.3441
2.0752,1.9241,1.6217,2.283
2.1238,1.8729,1.5882,2.2086
2.1735,1.8194,1.549,2.137
2.2244,1.7745,1.5165,2.0764
2.2765,1.7415,1.4954,2.0281
2.3298,1.7161,1.4791,1.991
2.3843,1.6913,1.4589,1.9607
2.4401,1.6632,1.4328,1.9307
2.4973,1.6326,1.4052,1.8967
2.5557,1.602,1.3805,1.8591
2.6155,1.5725,1.3584,1.8203
2.6768,1.5411,1.3345,1.7796
2.7395,1.5038,1.3044,1.7337
2.8036,1.4594,1.2671,1.6809
2.8692,1.4116,1.2263,1.6249
2.9364,1.3665,1.1877,1.5723
3.0051,1.3286,1.1555,1.5276
3.0755,1.2978,1.1299,1.4906
3.1475,1.2708,1.1092,1.4559
3.2212,1.2446,1.0916,1.4189
3.2966,1.2186,1.076,1.3802
3.3738,1.1946,1.0604,1.3459
3.4528,1.173,1.0427,1.3196
3.5336,1.1515,1.0221,1.2973
3.6163,1.1265,0.9984,1.2709
3.701,1.0964,0.9711,1.2378
3.7876,1.0638,0.9409,1.2027
3.8763,1.034,0.9112,1.1733
3.967,1.012,0.8871,1.1545
4.0599,0.9998,0.8716,1.1468
4.155,0.9962,0.864,1.1485
4.2522,0.9982,0.8611,1.1571
4.3518,1.0035,0.8606,1.1702
4.4537,1.0115,0.8633,1.1851
4.5579,1.0227,0.8712,1.2005
4.6647,1.037,0.8843,1.2161
4.7739,1.0531,0.9004,1.2316
4.8856,1.0681,0.9169,1.2441
5.0,1.0788,0.93,1.2513
