# hvsrpy output version 0.5.2
# File Name (),NA
# Method (),geometric-mean
# Azimuth (),0
# Window Length (s),1000.0
# Total Number of Windows (),86
# Frequency Domain Window Rejection Performed (),True
# Lower frequency limit for peaks (Hz),None
# Upper frequency limit for peaks (Hz),None
# Number of Standard Deviations Used for Rejection () [n],2
# Number of Accepted Windows (),72
# Number of Rejected Windows (),14
# Distribution of f0 (),lognormal
# Median f0 (Hz) [LMf0],0.0489
# Lognormal standard deviation f0 () [SigmaLNf0],1.205
# 68 % Confidence Interval f0 (Hz),0.0147,to,0.1633
# Median T0 (s) [LMT0],20.4316
# Lognormal standard deviation T0 () [SigmaLNT0],1.205
# 68 % Confidence Interval T0 (s),6.123,to,68.1774
# Median Curve Distribution (),lognormal
# Median Curve Peak Frequency (Hz) [f0mc],0.4398
# Median Curve Peak Amplitude (),2.305
# Frequency (Hz),Median Curve,1 STD Below Median Curve,1 STD Above Median Curve
0.01,1.946,0.6694,5.6575
0.0104,1.9395,0.6736,5.5844
0.0107,1.9184,0.7056,5.2158
0.0111,1.8987,0.7426,4.8547
0.0115,1.8815,0.7788,4.5458
0.0119,1.8686,0.8003,4.3631
0.0123,1.8571,0.8021,4.2999
0.0128,1.8448,0.7904,4.3057
0.0132,1.8328,0.7709,4.3574
0.0137,1.8213,0.7479,4.4349
0.0141,1.8103,0.722,4.5388
0.0146,1.8004,0.6934,4.6748
0.0152,1.7898,0.6643,4.8222
0.0157,1.7727,0.6406,4.9057
0.0163,1.7459,0.6239,4.8862
0.0168,1.7111,0.609,4.8081
0.0174,1.6684,0.6002,4.6374
0.018,1.626,0.6026,4.3871
0.0187,1.5938,0.6183,4.1085
0.0193,1.5757,0.6433,3.8594
0.02,1.57,0.6738,3.6585
0.0207,1.5731,0.7072,3.4992
0.0215,1.5782,0.7367,3.3809
0.0222,1.576,0.7505,3.3094
0.023,1.5602,0.7394,3.292
0.0238,1.529,0.7092,3.2966
0.0247,1.4849,0.6817,3.2342
0.0255,1.4473,0.6671,3.1399
0.0264,1.4379,0.6637,3.1151
0.0274,1.4551,0.6769,3.1279
0.0283,1.4827,0.6999,3.1406
0.0293,1.5012,0.7259,3.1048
0.0304,1.4918,0.746,2.9833
0.0314,1.4641,0.7581,2.8276
0.0326,1.4531,0.7628,2.7678
0.0337,1.4714,0.7506,2.8844
0.0349,1.4893,0.7234,3.0659
0.0361,1.4823,0.7122,3.0852
0.0374,1.4652,0.7272,2.9521
0.0387,1.4704,0.7502,2.8821
0.0401,1.4921,0.7644,2.9125
0.0415,1.5118,0.7603,3.0064
0.043,1.5212,0.7512,3.0801
0.0445,1.5114,0.7555,3.0238
0.0461,1.5026,0.7609,2.9673
0.0477,1.5188,0.7491,3.0793
0.0494,1.5413,0.731,3.2497
0.0511,1.5376,0.7261,3.2559
0.0529,1.4951,0.7178,3.114
0.0548,1.4393,0.7018,2.9519
0.0567,1.4183,0.6998,2.8742
0.0587,1.4432,0.7199,2.8934
0.0608,1.4817,0.7442,2.95
0.0629,1.5052,0.7653,2.9605
0.0652,1.5324,0.7956,2.9519
0.0675,1.5854,0.8354,3.0087
0.0699,1.6456,0.8758,3.0923
0.0723,1.6763,0.9065,3.1
0.0749,1.653,0.9078,3.0097
0.0775,1.5783,0.8754,2.8456
0.0803,1.4889,0.8286,2.6753
0.0831,1.419,0.7918,2.5429
0.086,1.3819,0.7786,2.4524
0.0891,1.3735,0.7832,2.409
0.0922,1.3667,0.7939,2.3527
0.0955,1.3342,0.7943,2.241
0.0988,1.2868,0.7731,2.1419
0.1023,1.2505,0.752,2.0794
0.106,1.2303,0.7553,2.0039
0.1097,1.2161,0.7815,1.8922
0.1136,1.203,0.8263,1.7514
0.1176,1.1867,0.877,1.6058
0.1217,1.1627,0.9179,1.4726
0.126,1.1403,0.934,1.3922
0.1305,1.1271,0.9429,1.3474
0.1351,1.1197,0.9658,1.2982
0.1399,1.1113,0.9775,1.2635
0.1448,1.0966,0.9632,1.2485
0.1499,1.0804,0.9479,1.2314
0.1552,1.0785,0.9495,1.2251
0.1607,1.1031,0.9783,1.2437
0.1664,1.1463,1.0306,1.275
0.1723,1.1836,1.0717,1.3072
0.1783,1.2022,1.083,1.3345
0.1846,1.2194,1.0937,1.3595
0.1912,1.2561,1.1334,1.3921
0.1979,1.3105,1.1841,1.4505
0.2049,1.3651,1.2262,1.5198
0.2121,1.4106,1.2647,1.5733
0.2196,1.4556,1.3173,1.6084
0.2274,1.5115,1.3889,1.6449
0.2354,1.5691,1.4432,1.7059
0.2437,1.6088,1.4606,1.772
0.2524,1.6382,1.476,1.8181
0.2613,1.6922,1.5273,1.875
0.2705,1.7845,1.6101,1.9777
0.2801,1.8797,1.6923,2.0879
0.2899,1.9339,1.7418,2.1471
0.3002,1.9449,1.761,2.1479
0.3108,1.9489,1.7831,2.13
0.3218,1.9769,1.8228,2.1441
0.3331,2.0272,1.8738,2.1931
0.3449,2.0742,1.9129,2.2492
0.3571,2.0986,1.9211,2.2924
0.3697,2.1038,1.9219,2.303
0.3827,2.1144,1.922,2.3262
0.3963,2.1524,1.9475,2.3789
0.4103,2.2156,2.0101,2.4421
0.4248,2.2774,2.0793,2.4944
0.4398,2.305,2.1171,2.5094
0.4553,2.2748,2.1008,2.4632
0.4714,2.1814,2.0171,2.3591
0.488,2.0454,1.8918,2.2116
0.5053,1.9126,1.7738,2.0623
0.5231,1.8211,1.7015,1.9492
0.5416,1.7695,1.6616,1.8843
0.5607,1.7308,1.6195,1.8496
0.5805,1.6923,1.5798,1.8128
0.601,1.6617,1.5515,1.7798
0.6223,1.6475,1.5274,1.7771
0.6442,1.6573,1.5216,1.805
0.667,1.7014,1.5605,1.855
0.6906,1.7824,1.643,1.9335
0.7149,1.8827,1.7363,2.0415
0.7402,1.9742,1.8103,2.1529
0.7663,2.0405,1.8515,2.2488
0.7934,2.0751,1.8601,2.315
0.8214,2.0658,1.8407,2.3184
0.8504,2.0185,1.81,2.2511
0.8805,1.9769,1.7939,2.1785
0.9116,1.9814,1.8161,2.1617
0.9438,2.0343,1.8633,2.221
0.9771,2.1078,1.9038,2.3336
1.0116,2.1713,1.9334,2.4384
1.0474,2.2033,1.9423,2.4994
1.0844,2.1921,1.9277,2.4927
1.1227,2.1425,1.8856,2.4343
1.1623,2.0661,1.8198,2.3457
1.2034,1.9804,1.7554,2.2342
1.2459,1.9145,1.7083,2.1455
1.2899,1.8895,1.6781,2.1275
1.3355,1.8984,1.6648,2.1648
1.3826,1.9268,1.6564,2.2414
1.4315,1.9737,1.658,2.3496
1.482,2.0354,1.688,2.4543
1.5344,2.0965,1.7309,2.5393
1.5886,2.1378,1.7554,2.6037
1.6447,2.1403,1.7401,2.6327
1.7028,2.0963,1.6815,2.6134
1.7629,2.0256,1.6036,2.5587
1.8252,1.9585,1.5344,2.4997
1.8897,1.9057,1.4786,2.4562
1.9564,1.8599,1.4242,2.429
2.0255,1.8086,1.3675,2.392
2.097,1.7411,1.3103,2.3134
2.1711,1.6597,1.2521,2.2001
2.2478,1.581,1.1947,2.0923
2.3272,1.5169,1.1453,2.009
2.4094,1.4656,1.1056,1.943
2.4945,1.423,1.0724,1.8881
2.5826,1.384,1.0479,1.828
2.6738,1.3402,1.0257,1.751
2.7683,1.2855,0.9928,1.6645
2.8661,1.225,0.9506,1.5784
2.9673,1.1712,0.9127,1.503
3.0721,1.1303,0.8821,1.4482
3.1806,1.0987,0.8555,1.4112
3.293,1.0738,0.8333,1.3838
3.4093,1.055,0.818,1.3607
3.5297,1.038,0.808,1.3334
3.6544,1.0156,0.7952,1.297
3.7835,0.9882,0.7757,1.2589
3.9171,0.9654,0.7589,1.2281
4.0555,0.9561,0.7565,1.2083
4.1987,0.9603,0.7679,1.2009
4.347,0.9711,0.7821,1.2058
4.5006,0.9848,0.7927,1.2235
4.6595,1.0035,0.8042,1.2521
4.8241,1.0293,0.8222,1.2885
4.9945,1.0624,0.8453,1.3352
5.1709,1.1051,0.8688,1.4056
5.3536,1.1659,0.8882,1.5305
5.5427,1.2578,0.91,1.7385
5.7384,1.3821,0.9533,2.0039
5.9411,1.5063,1.0212,2.2218
6.151,1.5667,1.0802,2.2722
6.3682,1.5283,1.0918,2.1393
6.5932,1.432,1.0573,1.9395
6.8261,1.344,1.0096,1.7891
7.0672,1.2869,0.9823,1.6861
7.3168,1.2437,0.98,1.5783
7.5753,1.1982,0.9834,1.4599
7.8428,1.1572,0.9829,1.3625
8.1198,1.1349,0.9833,1.3099
8.4067,1.1358,0.9914,1.3011
8.7036,1.1537,1.0059,1.3231
9.011,1.1792,1.021,1.362
9.3293,1.206,1.0314,1.4103
9.6588,1.2309,1.0339,1.4655
10.0,1.2514,1.0269,1.5249
