# hvsrpy output version 0.5.2
# File Name (),NA
# Method (),geometric-mean
# Azimuth (),0
# Window Length (s),1200.0
# Total Number of Windows (),72
# Frequency Domain Window Rejection Performed (),True
# Lower frequency limit for peaks (Hz),0.1
# Upper frequency limit for peaks (Hz),5.0
# Number of Standard Deviations Used for Rejection () [n],2
# Number of Accepted Windows (),71
# Number of Rejected Windows (),1
# Distribution of f0 (),lognormal
# Median f0 (Hz) [LMf0],0.7306
# Lognormal standard deviation f0 () [SigmaLNf0],0.6318
# 68 % Confidence Interval f0 (Hz),0.3884,to,1.3742
# Median T0 (s) [LMT0],1.3688
# Lognormal standard deviation T0 () [SigmaLNT0],0.6318
# 68 % Confidence Interval T0 (s),0.7277,to,2.5747
# Median Curve Distribution (),lognormal
# Median Curve Peak Frequency (Hz) [f0mc],0.4302
# Median Curve Peak Amplitude (),2.3057
# Frequency (Hz),Median Curve,1 STD Below Median Curve,1 STD Above Median Curve
0.05,1.3719,0.7203,2.613
0.0512,1.3516,0.7211,2.5332
0.0524,1.3386,0.7291,2.4578
0.0536,1.3384,0.7429,2.4111
0.0548,1.3496,0.7606,2.3946
0.0561,1.3681,0.7798,2.4002
0.0574,1.3893,0.7985,2.4172
0.0588,1.4085,0.8161,2.431
0.0602,1.4229,0.8318,2.4341
0.0616,1.4328,0.8445,2.4311
0.063,1.4428,0.8553,2.4338
0.0645,1.4576,0.8674,2.4495
0.066,1.4787,0.8845,2.4721
0.0675,1.5036,0.9085,2.4886
0.0691,1.5275,0.9395,2.4835
0.0707,1.5456,0.9734,2.4544
0.0724,1.5541,0.9989,2.418
0.0741,1.5479,1.0046,2.385
0.0758,1.5234,0.9895,2.3453
0.0776,1.4839,0.9622,2.2885
0.0794,1.438,0.9321,2.2186
0.0813,1.3938,0.9045,2.1478
0.0832,1.3563,0.881,2.088
0.0851,1.3284,0.862,2.0473
0.0871,1.3109,0.849,2.0241
0.0892,1.3007,0.844,2.0048
0.0913,1.2917,0.8471,1.9696
0.0934,1.277,0.8548,1.9077
0.0956,1.255,0.8617,1.8278
0.0978,1.2306,0.8653,1.7502
0.1001,1.2107,0.8689,1.687
0.1025,1.1983,0.8779,1.6357
0.1049,1.1912,0.8927,1.5896
0.1073,1.185,0.9091,1.5447
0.1098,1.1762,0.9253,1.4952
0.1124,1.1654,0.9404,1.4443
0.115,1.1551,0.9493,1.4054
0.1177,1.1465,0.9525,1.3801
0.1205,1.1392,0.9553,1.3586
0.1233,1.1326,0.9582,1.3386
0.1262,1.1262,0.9585,1.3233
0.1291,1.1196,0.957,1.3097
0.1322,1.1121,0.9568,1.2926
0.1352,1.104,0.9582,1.272
0.1384,1.0956,0.9584,1.2523
0.1417,1.0869,0.9547,1.2374
0.145,1.0786,0.9479,1.2272
0.1484,1.0724,0.9435,1.2189
0.1518,1.0715,0.9468,1.2125
0.1554,1.0788,0.9591,1.2136
0.159,1.0958,0.9782,1.2277
0.1628,1.1208,1.0028,1.2528
0.1666,1.1488,1.0315,1.2794
0.1705,1.1734,1.06,1.299
0.1745,1.1907,1.0816,1.3109
0.1785,1.2025,1.0956,1.3199
0.1827,1.2156,1.1114,1.3296
0.187,1.2369,1.1365,1.3461
0.1914,1.2684,1.1683,1.3771
0.1959,1.3061,1.1991,1.4226
0.2004,1.3424,1.2224,1.4742
0.2051,1.3717,1.2347,1.5239
0.2099,1.3935,1.2429,1.5624
0.2149,1.4128,1.261,1.5829
0.2199,1.4371,1.2991,1.5898
0.225,1.4712,1.353,1.5997
0.2303,1.5132,1.4038,1.6311
0.2357,1.5552,1.4372,1.6828
0.2412,1.5887,1.4552,1.7344
0.2469,1.6122,1.4648,1.7744
0.2526,1.6337,1.4774,1.8065
0.2585,1.6645,1.5063,1.8394
0.2646,1.7103,1.555,1.8812
0.2708,1.7665,1.6124,1.9354
0.2771,1.8212,1.6622,1.9955
0.2836,1.8631,1.6972,2.0452
0.2903,1.8878,1.7215,2.0703
0.2971,1.8998,1.7435,2.0702
0.304,1.9084,1.7672,2.0609
0.3111,1.9223,1.7904,2.0639
0.3184,1.9457,1.8136,2.0874
0.3259,1.9775,1.8432,2.1215
0.3335,2.0129,1.8794,2.1559
0.3413,2.0459,1.9104,2.1911
0.3493,2.0717,1.9262,2.2282
0.3575,2.0881,1.9304,2.2586
0.3658,2.0974,1.9315,2.2776
0.3744,2.1069,1.9356,2.2933
0.3832,2.125,1.9492,2.3167
0.3921,2.1571,1.977,2.3535
0.4013,2.2011,2.0189,2.3997
0.4107,2.2481,2.0685,2.4434
0.4203,2.2862,2.1134,2.4731
0.4302,2.3057,2.1404,2.4836
0.4402,2.3027,2.1438,2.4734
0.4506,2.2779,2.1245,2.4425
0.4611,2.233,2.0841,2.3925
0.4719,2.1691,2.0249,2.3236
0.4829,2.09,1.9521,2.2376
0.4942,2.0046,1.8742,2.1441
0.5058,1.9255,1.8028,2.0566
0.5177,1.8618,1.7472,1.984
0.5298,1.815,1.7073,1.9295
0.5422,1.7794,1.675,1.8903
0.5549,1.7476,1.6443,1.8573
0.5679,1.7162,1.6159,1.8227
0.5812,1.6868,1.5917,1.7876
0.5948,1.6633,1.5711,1.761
0.6087,1.6482,1.5522,1.75
0.6229,1.6421,1.5374,1.7539
0.6375,1.6459,1.5315,1.7689
0.6525,1.6624,1.5397,1.7948
0.6677,1.6953,1.5684,1.8325
0.6834,1.7466,1.6201,1.8831
0.6994,1.8126,1.6883,1.9461
0.7157,1.8839,1.7582,2.0187
0.7325,1.95,1.8148,2.0952
0.7496,2.0042,1.8523,2.1684
0.7672,2.045,1.8739,2.2316
0.7851,2.0719,1.8823,2.2805
0.8035,2.0816,1.8771,2.3085
0.8223,2.0707,1.8602,2.3051
0.8416,2.0421,1.8387,2.2681
0.8613,2.0081,1.8208,2.2146
0.8815,1.9845,1.8151,2.1697
0.9021,1.9826,1.8285,2.1496
0.9232,2.0045,1.861,2.1589
0.9448,2.0446,1.9015,2.1984
0.9669,2.0939,1.9375,2.2628
0.9896,2.144,1.9647,2.3396
1.0128,2.1882,1.9817,2.4163
1.0365,2.2202,1.9892,2.478
1.0607,2.2335,1.9898,2.5071
1.0856,2.2241,1.9824,2.4953
1.111,2.1931,1.9618,2.4517
1.137,2.1458,1.9261,2.3904
1.1636,2.0888,1.882,2.3183
1.1908,2.0296,1.839,2.2399
1.2187,1.9763,1.8031,2.1663
1.2473,1.937,1.7727,2.1165
1.2765,1.916,1.7459,2.1028
1.3063,1.9125,1.7261,2.119
1.3369,1.9222,1.7146,2.1549
1.3682,1.9422,1.707,2.2097
1.4003,1.9719,1.7025,2.2838
1.433,2.0103,1.7083,2.3656
1.4666,2.0537,1.7316,2.4358
1.5009,2.0968,1.7694,2.4848
1.5361,2.1341,1.8091,2.5176
1.572,2.161,1.8366,2.5426
1.6088,2.1736,1.8427,2.5638
1.6465,2.1694,1.8239,2.5803
1.685,2.1482,1.7832,2.5878
1.7245,2.1137,1.73,2.5827
1.7649,2.073,1.6752,2.5654
1.8062,2.0323,1.6265,2.5395
1.8485,1.9942,1.5854,2.5085
1.8917,1.9581,1.5487,2.4758
1.936,1.9228,1.5125,2.4443
1.9813,1.8866,1.4754,2.4125
2.0277,1.8476,1.4379,2.374
2.0752,1.8038,1.4006,2.3231
2.1238,1.7553,1.3629,2.2607
2.1735,1.7048,1.3245,2.1942
2.2244,1.6561,1.287,2.1309
2.2765,1.6118,1.254,2.0716
2.3298,1.5722,1.2274,2.0138
2.3843,1.5364,1.2055,1.9583
2.4401,1.5038,1.1843,1.9096
2.4973,1.4736,1.1617,1.8692
2.5557,1.4439,1.1382,1.8317
2.6155,1.4121,1.1139,1.7901
2.6768,1.3763,1.0878,1.7413
2.7395,1.3361,1.0585,1.6865
2.8036,1.2936,1.0268,1.6299
2.8692,1.2525,0.9952,1.5764
2.9364,1.2165,0.9665,1.5312
3.0051,1.1873,0.9414,1.4973
3.0755,1.1639,0.9193,1.4735
3.1475,1.1443,0.8999,1.4551
3.2212,1.1269,0.8828,1.4385
3.2966,1.1112,0.868,1.4225
3.3738,1.0969,0.8554,1.4067
3.4528,1.0836,0.8452,1.3892
3.5336,1.0698,0.8363,1.3684
3.6163,1.0539,0.8259,1.3449
3.701,1.0361,0.8122,1.3216
3.7876,1.0179,0.7967,1.3005
3.8763,1.0019,0.7833,1.2814
3.967,0.9904,0.776,1.264
4.0599,0.9847,0.7762,1.2493
4.155,0.9845,0.7823,1.239
4.2522,0.9882,0.791,1.2346
4.3518,0.9943,0.7995,1.2365
4.4537,1.002,0.8064,1.245
4.5579,1.0117,0.8127,1.2595
4.6647,1.0239,0.8201,1.2784
4.7739,1.0385,0.8299,1.2995
4.8856,1.0552,0.8421,1.3222
5.0,1.0738,0.8556,1.3475
