# hvsrpy output version 0.5.2
# File Name (),NA
# Method (),geometric-mean
# Azimuth (),0
# Window Length (s),3600.0
# Total Number of Windows (),24
# Frequency Domain Window Rejection Performed (),True
# Lower frequency limit for peaks (Hz),0.006
# Upper frequency limit for peaks (Hz),9.9
# Number of Standard Deviations Used for Rejection () [n],2
# Number of Accepted Windows (),24
# Number of Rejected Windows (),0
# Distribution of f0 (),lognormal
# Median f0 (Hz) [LMf0],0.3323
# Lognormal standard deviation f0 () [SigmaLNf0],2.7054
# 68 % Confidence Interval f0 (Hz),0.0222,to,4.972
# Median T0 (s) [LMT0],3.0089
# Lognormal standard deviation T0 () [SigmaLNT0],2.7054
# 68 % Confidence Interval T0 (s),0.2011,to,45.0152
# Median Curve Distribution (),lognormal
# Median Curve Peak Frequency (Hz) [f0mc],0.973
# Median Curve Peak Amplitude (),1.8112
# Frequency (Hz),Median Curve,1 STD Below Median Curve,1 STD Above Median Curve
0.005,1.4286,0.3529,5.7829
0.0052,1.3905,0.3769,5.1296
0.0054,1.3637,0.3922,4.7419
0.0056,1.3553,0.4056,4.5291
0.0058,1.3533,0.428,4.2791
0.0061,1.3887,0.4572,4.2187
0.0063,1.4636,0.4862,4.4053
0.0065,1.5329,0.5015,4.6855
0.0068,1.5582,0.5006,4.8501
0.0071,1.5436,0.5155,4.6217
0.0073,1.5357,0.5607,4.206
0.0076,1.5262,0.6072,3.8361
0.0079,1.5201,0.6427,3.5956
0.0082,1.5058,0.6587,3.4421
0.0085,1.505,0.6651,3.4055
0.0089,1.5141,0.6646,3.4495
0.0092,1.4863,0.6298,3.5074
0.0096,1.429,0.5709,3.5766
0.0099,1.3866,0.531,3.621
0.0103,1.3871,0.5344,3.6006
0.0107,1.4238,0.5652,3.5867
0.0112,1.4583,0.5967,3.564
0.0116,1.4451,0.6296,3.3169
0.012,1.3977,0.6592,2.9638
0.0125,1.3409,0.6323,2.844
0.013,1.2994,0.589,2.867
0.0135,1.2946,0.5956,2.8138
0.014,1.2963,0.6336,2.6522
0.0146,1.2746,0.6402,2.5378
0.0151,1.2453,0.619,2.5052
0.0157,1.2434,0.6142,2.5168
0.0163,1.266,0.6201,2.5847
0.017,1.2869,0.6123,2.7051
0.0176,1.275,0.5803,2.8015
0.0183,1.239,0.5456,2.8135
0.019,1.2219,0.555,2.6898
0.0198,1.2337,0.6185,2.4605
0.0205,1.2469,0.6931,2.2431
0.0213,1.2509,0.731,2.1405
0.0222,1.2694,0.742,2.1717
0.023,1.288,0.7294,2.2745
0.0239,1.2798,0.6968,2.3506
0.0249,1.2481,0.6588,2.3646
0.0258,1.21,0.6212,2.3569
0.0268,1.1646,0.5926,2.2891
0.0279,1.1303,0.5835,2.1893
0.029,1.1336,0.5869,2.1897
0.0301,1.1569,0.5821,2.2997
0.0313,1.1697,0.582,2.3506
0.0325,1.1682,0.6034,2.2619
0.0338,1.1723,0.637,2.1577
0.0351,1.1931,0.6594,2.1585
0.0364,1.2208,0.6619,2.2516
0.0379,1.248,0.6664,2.3373
0.0393,1.2739,0.6818,2.3802
0.0409,1.2828,0.6905,2.383
0.0425,1.2704,0.6825,2.3645
0.0441,1.2578,0.6755,2.3422
0.0458,1.2563,0.6828,2.3115
0.0476,1.261,0.6921,2.2975
0.0495,1.2606,0.6919,2.2968
0.0514,1.2558,0.6849,2.3026
0.0534,1.2536,0.6821,2.3039
0.0555,1.2489,0.6877,2.2681
0.0576,1.2349,0.6987,2.1825
0.0599,1.2251,0.7177,2.0911
0.0622,1.2429,0.7524,2.0531
0.0646,1.2918,0.7921,2.1067
0.0671,1.3516,0.8153,2.2406
0.0698,1.3983,0.8315,2.3516
0.0725,1.4122,0.8662,2.3023
0.0753,1.3883,0.9143,2.108
0.0782,1.3486,0.9457,1.9233
0.0813,1.3159,0.9491,1.8244
0.0844,1.2901,0.9458,1.7599
0.0877,1.2716,0.954,1.6951
0.0911,1.2742,0.9759,1.6637
0.0947,1.3046,1.0166,1.6742
0.0984,1.3554,1.0775,1.705
0.1022,1.4027,1.1358,1.7324
0.1062,1.4159,1.1648,1.7212
0.1103,1.3952,1.1602,1.6777
0.1146,1.3676,1.1355,1.6471
0.1191,1.335,1.1075,1.6093
0.1237,1.2739,1.0758,1.5086
0.1285,1.1989,1.0367,1.3865
0.1335,1.1531,1.0171,1.3072
0.1387,1.1419,1.0336,1.2615
0.1441,1.1452,1.0546,1.2436
0.1497,1.1486,1.0581,1.2468
0.1556,1.1431,1.0557,1.2377
0.1616,1.1274,1.0502,1.2103
0.1679,1.119,1.0497,1.1928
0.1744,1.1287,1.0608,1.2008
0.1812,1.1416,1.0671,1.2212
0.1883,1.1458,1.0669,1.2305
0.1956,1.1409,1.0567,1.2319
0.2032,1.134,1.0563,1.2174
0.2112,1.1373,1.0793,1.1984
0.2194,1.1486,1.1004,1.1988
0.2279,1.1588,1.105,1.2152
0.2368,1.1749,1.1164,1.2364
0.246,1.2004,1.1316,1.2735
0.2556,1.2251,1.139,1.3177
0.2655,1.2552,1.1543,1.365
0.2759,1.3116,1.2015,1.4317
0.2866,1.3946,1.2895,1.5083
0.2978,1.4735,1.3805,1.5727
0.3094,1.5219,1.4259,1.6243
0.3214,1.5458,1.4455,1.6531
0.3339,1.5627,1.4614,1.671
0.3469,1.5901,1.4831,1.7048
0.3604,1.6389,1.5222,1.7646
0.3745,1.6968,1.5814,1.8207
0.3891,1.7324,1.6314,1.8397
0.4042,1.7353,1.646,1.8295
0.4199,1.7403,1.6489,1.8369
0.4363,1.7728,1.6751,1.8761
0.4533,1.7918,1.6897,1.9
0.4709,1.759,1.6613,1.8624
0.4893,1.7052,1.6233,1.7913
0.5083,1.6642,1.5963,1.7351
0.5281,1.635,1.5738,1.6986
0.5487,1.6157,1.5592,1.6743
0.57,1.6116,1.553,1.6724
0.5922,1.6202,1.5619,1.6807
0.6153,1.6375,1.579,1.6982
0.6392,1.6617,1.5994,1.7264
0.6641,1.6792,1.6212,1.7392
0.69,1.6717,1.6256,1.7191
0.7168,1.6512,1.6118,1.6915
0.7447,1.6506,1.6039,1.6988
0.7737,1.6738,1.6213,1.7279
0.8039,1.6968,1.641,1.7544
0.8352,1.7124,1.6536,1.7732
0.8677,1.7343,1.6768,1.7938
0.9015,1.7659,1.7039,1.8301
0.9366,1.7962,1.7279,1.8673
0.973,1.8112,1.7456,1.8792
1.0109,1.7915,1.7287,1.8565
1.0503,1.7293,1.6614,1.7999
1.0912,1.6554,1.5777,1.737
1.1336,1.6169,1.5313,1.7073
1.1778,1.6346,1.5447,1.7297
1.2236,1.683,1.5859,1.7861
1.2713,1.7072,1.5951,1.8271
1.3208,1.6932,1.5598,1.838
1.3722,1.6744,1.5243,1.8393
1.4256,1.656,1.5028,1.8248
1.4811,1.6226,1.4697,1.7915
1.5388,1.586,1.4127,1.7807
1.5987,1.5558,1.3408,1.8054
1.661,1.5216,1.2899,1.7947
1.7256,1.4826,1.2599,1.7447
1.7928,1.4519,1.2307,1.7127
1.8626,1.4387,1.2079,1.7137
1.9351,1.4403,1.2082,1.7169
2.0105,1.4509,1.2331,1.7072
2.0888,1.4576,1.2634,1.6817
2.1701,1.4389,1.2735,1.6259
2.2546,1.3924,1.2491,1.5521
2.3424,1.3423,1.2087,1.4908
2.4336,1.3056,1.1682,1.4593
2.5283,1.2778,1.1251,1.4512
2.6267,1.2488,1.0931,1.4268
2.729,1.2176,1.076,1.3778
2.8353,1.192,1.0628,1.337
2.9456,1.176,1.0522,1.3143
3.0603,1.1637,1.0526,1.2866
3.1795,1.1519,1.0515,1.2619
3.3033,1.146,1.0467,1.2547
3.4319,1.1451,1.0495,1.2493
3.5655,1.145,1.0536,1.2442
3.7043,1.1508,1.0587,1.251
3.8486,1.1723,1.0703,1.2841
3.9984,1.2096,1.0887,1.3439
4.1541,1.2502,1.1067,1.4124
4.3158,1.2798,1.1154,1.4684
4.4838,1.3004,1.1124,1.5203
4.6584,1.331,1.1092,1.5971
4.8398,1.3983,1.1367,1.7202
5.0282,1.515,1.2061,1.9031
5.224,1.6475,1.2893,2.1052
5.4274,1.7166,1.3295,2.2164
5.6387,1.6456,1.2862,2.1055
5.8582,1.4465,1.1846,1.7662
6.0863,1.2123,1.0476,1.4029
6.3233,1.0437,0.8813,1.2359
6.5695,0.9772,0.7992,1.195
6.8253,0.9901,0.8063,1.2157
7.091,1.0567,0.8651,1.2908
7.3671,1.1024,0.8948,1.3581
7.6539,1.0562,0.8569,1.302
7.9519,1.0031,0.8164,1.2324
8.2615,1.0027,0.8145,1.2343
8.5832,1.0623,0.8744,1.2905
8.9173,1.1644,1.0014,1.354
9.2645,1.2622,1.1334,1.4055
9.6252,1.3294,1.2178,1.4513
10.0,1.3751,1.2639,1.4961
