# hvsrpy output version 0.5.2
# File Name (),NA
# Method (),geometric-mean
# Azimuth (),0
# Window Length (s),60.0
# Total Number of Windows (),1440
# Frequency Domain Window Rejection Performed (),True
# Lower frequency limit for peaks (Hz),None
# Upper frequency limit for peaks (Hz),None
# Number of Standard Deviations Used for Rejection () [n],2
# Number of Accepted Windows (),1206
# Number of Rejected Windows (),234
# Distribution of f0 (),lognormal
# Median f0 (Hz) [LMf0],0.2724
# Lognormal standard deviation f0 () [SigmaLNf0],0.4794
# 68 % Confidence Interval f0 (Hz),0.1687,to,0.44
# Median T0 (s) [LMT0],3.6709
# Lognormal standard deviation T0 () [SigmaLNT0],0.4794
# 68 % Confidence Interval T0 (s),2.2729,to,5.9288
# Median Curve Distribution (),lognormal
# Median Curve Peak Frequency (Hz) [f0mc],0.4297
# Median Curve Peak Amplitude (),2.3372
# Frequency (Hz),Median Curve,1 STD Below Median Curve,1 STD Above Median Curve
0.1,1.6825,0.8262,3.4263
0.1023,1.6821,0.8276,3.4191
0.1047,1.6803,0.8341,3.3849
0.1072,1.6773,0.841,3.3454
0.1097,1.6788,0.8277,3.4051
0.1123,1.6828,0.8119,3.4878
0.1149,1.684,0.8066,3.5156
0.1176,1.6788,0.8103,3.4785
0.1203,1.6593,0.8226,3.3472
0.1232,1.6242,0.8297,3.1796
0.126,1.5951,0.8048,3.1613
0.129,1.5836,0.7714,3.2508
0.132,1.5751,0.7639,3.2477
0.1351,1.5553,0.7862,3.0768
0.1383,1.5249,0.8168,2.8469
0.1415,1.5031,0.8081,2.7955
0.1448,1.4991,0.765,2.9373
0.1482,1.4896,0.7519,2.951
0.1517,1.4602,0.7887,2.7034
0.1552,1.4323,0.828,2.4776
0.1589,1.4249,0.8127,2.4984
0.1626,1.4292,0.7773,2.6279
0.1664,1.4209,0.7883,2.561
0.1703,1.4051,0.8313,2.3748
0.1743,1.4012,0.8424,2.3304
0.1783,1.4086,0.8289,2.3937
0.1825,1.415,0.8466,2.365
0.1868,1.4233,0.878,2.3073
0.1912,1.4406,0.8799,2.3585
0.1956,1.458,0.8759,2.4268
0.2002,1.4651,0.8965,2.3942
0.2049,1.4686,0.9194,2.3459
0.2097,1.4777,0.9233,2.3649
0.2146,1.4906,0.9266,2.3979
0.2196,1.5029,0.9439,2.3931
0.2248,1.516,0.9658,2.3796
0.23,1.5332,0.9836,2.3899
0.2354,1.5543,1.0045,2.405
0.2409,1.5776,1.0311,2.4138
0.2466,1.6044,1.0556,2.4384
0.2524,1.6372,1.0771,2.4886
0.2583,1.6768,1.1056,2.5432
0.2643,1.7242,1.1426,2.6018
0.2705,1.7801,1.1803,2.6847
0.2768,1.8388,1.2189,2.7741
0.2833,1.8906,1.2574,2.8427
0.2899,1.9302,1.2899,2.8881
0.2967,1.958,1.3176,2.9096
0.3037,1.981,1.3398,2.9291
0.3108,2.0074,1.3582,2.9671
0.3181,2.0391,1.3788,3.0157
0.3255,2.0719,1.4038,3.0578
0.3331,2.0993,1.4303,3.0812
0.3409,2.1175,1.4509,3.0903
0.3489,2.1257,1.4639,3.0867
0.3571,2.1265,1.4714,3.0734
0.3654,2.1261,1.4773,3.0598
0.374,2.1339,1.4886,3.0589
0.3827,2.1582,1.5097,3.0854
0.3917,2.2001,1.5424,3.1383
0.4009,2.2512,1.5833,3.2007
0.4103,2.2975,1.6201,3.2582
0.4199,2.3278,1.644,3.2961
0.4297,2.3372,1.657,3.2965
0.4398,2.3264,1.6619,3.2568
0.4501,2.2988,1.6546,3.1939
0.4606,2.2568,1.6296,3.1253
0.4714,2.2021,1.5916,3.0469
0.4824,2.1374,1.552,2.9435
0.4937,2.0687,1.518,2.8191
0.5053,2.0061,1.4887,2.7032
0.5171,1.9575,1.4628,2.6194
0.5292,1.9225,1.4388,2.5688
0.5416,1.8923,1.4137,2.5328
0.5543,1.8569,1.3856,2.4885
0.5672,1.8146,1.3555,2.4293
0.5805,1.7722,1.3268,2.367
0.5941,1.7368,1.3044,2.3125
0.608,1.7113,1.2909,2.2687
0.6223,1.6964,1.2846,2.2401
0.6368,1.693,1.2842,2.2318
0.6517,1.7029,1.2931,2.2426
0.667,1.728,1.3159,2.269
0.6826,1.7685,1.3538,2.3102
0.6986,1.8207,1.402,2.3644
0.7149,1.8759,1.4528,2.4221
0.7317,1.9245,1.4982,2.472
0.7488,1.9617,1.5337,2.509
0.7663,1.9885,1.5609,2.5332
0.7843,2.0067,1.5823,2.5449
0.8026,2.0146,1.5962,2.5428
0.8214,2.0089,1.5965,2.5279
0.8407,1.99,1.5829,2.5018
0.8603,1.9661,1.5659,2.4685
0.8805,1.9506,1.5578,2.4423
0.9011,1.9547,1.5647,2.4418
0.9222,1.9812,1.5872,2.473
0.9438,2.0238,1.6223,2.5247
0.9659,2.0717,1.6636,2.58
0.9885,2.1146,1.7024,2.6266
1.0116,2.1457,1.733,2.6567
1.0353,2.1621,1.7526,2.6673
1.0596,2.1633,1.7586,2.6611
1.0844,2.1499,1.7494,2.6421
1.1098,2.1235,1.7272,2.6107
1.1357,2.0864,1.6969,2.5653
1.1623,2.0423,1.6623,2.509
1.1895,1.9971,1.6272,2.4511
1.2174,1.9597,1.5979,2.4034
1.2459,1.9384,1.581,2.3767
1.2751,1.9366,1.5791,2.375
1.3049,1.9503,1.5904,2.3915
1.3355,1.9716,1.6093,2.4155
1.3667,1.9943,1.6299,2.4402
1.3987,2.0166,1.6493,2.4657
1.4315,2.0401,1.6697,2.4926
1.465,2.067,1.6948,2.5209
1.4993,2.0992,1.725,2.5545
1.5344,2.1357,1.7557,2.5978
1.5703,2.1719,1.7828,2.6459
1.6071,2.1994,1.8027,2.6834
1.6447,2.2096,1.8098,2.6979
1.6832,2.1986,1.7992,2.6866
1.7226,2.1704,1.7745,2.6546
1.7629,2.1357,1.7447,2.6143
1.8042,2.1055,1.7184,2.5798
1.8464,2.0852,1.6985,2.56
1.8897,2.0729,1.6824,2.554
1.9339,2.0618,1.6652,2.5528
1.9792,2.0439,1.6417,2.5446
2.0255,2.0133,1.6092,2.5188
2.0729,1.9682,1.5673,2.4716
2.1215,1.9128,1.5177,2.4107
2.1711,1.8556,1.4655,2.3494
2.2219,1.8048,1.4185,2.2962
2.274,1.7639,1.3816,2.2518
2.3272,1.7307,1.354,2.2121
2.3817,1.7001,1.3313,2.1711
2.4374,1.668,1.3096,2.1246
2.4945,1.6334,1.2865,2.0738
2.5529,1.5976,1.2614,2.0236
2.6127,1.5623,1.2343,1.9775
2.6738,1.5271,1.2056,1.9344
2.7364,1.4907,1.176,1.8896
2.8005,1.4515,1.1458,1.8388
2.8661,1.4091,1.1151,1.7807
2.9332,1.3639,1.0835,1.7168
3.0018,1.3165,1.0508,1.6494
3.0721,1.2675,1.0166,1.5803
3.144,1.2176,0.9809,1.5114
3.2176,1.1686,0.9448,1.4454
3.293,1.1228,0.9098,1.3856
3.3701,1.0815,0.877,1.3338
3.449,1.0447,0.847,1.2885
3.5297,1.0109,0.8194,1.2473
3.6123,0.979,0.7934,1.2081
3.6969,0.9486,0.7686,1.1709
3.7835,0.9211,0.7458,1.1375
3.872,0.8985,0.7269,1.1107
3.9627,0.883,0.7139,1.0922
4.0555,0.8759,0.7081,1.0834
4.1504,0.8774,0.7096,1.085
4.2476,0.8873,0.7181,1.0963
4.347,0.9045,0.7329,1.1163
4.4488,0.9277,0.7525,1.1437
4.5529,0.9549,0.7753,1.1762
4.6595,0.9839,0.7999,1.2103
4.7686,1.012,0.8242,1.2425
4.8803,1.0365,0.8452,1.2711
4.9945,1.0552,0.8596,1.2954
5.1114,1.0671,0.8659,1.3149
5.2311,1.0723,0.8655,1.3285
5.3536,1.0727,0.8611,1.3362
5.4789,1.0714,0.856,1.341
5.6072,1.0723,0.8525,1.3487
5.7384,1.0786,0.852,1.3656
5.8728,1.0919,0.8546,1.3953
6.0103,1.1104,0.8601,1.4336
6.151,1.1294,0.8683,1.4689
6.295,1.1435,0.8791,1.4875
6.4424,1.1493,0.8915,1.4816
6.5932,1.1466,0.903,1.456
6.7475,1.1393,0.9106,1.4255
6.9055,1.133,0.913,1.4059
7.0672,1.1318,0.9129,1.4031
7.2326,1.1359,0.9137,1.4123
7.402,1.1424,0.9164,1.4241
7.5753,1.1473,0.92,1.4307
7.7526,1.1485,0.9225,1.43
7.9341,1.1466,0.9225,1.4253
8.1198,1.1438,0.9207,1.4209
8.3099,1.1423,0.9194,1.4194
8.5045,1.1433,0.9197,1.4213
8.7036,1.1464,0.9214,1.4263
8.9074,1.1504,0.9231,1.4336
9.1159,1.1543,0.924,1.4421
9.3293,1.1576,0.9236,1.4509
9.5477,1.1603,0.9222,1.4597
9.7712,1.1624,0.9201,1.4684
10.0,1.1642,0.9177,1.4769
