# hvsrpy output version 0.5.2
# File Name (),NA
# Method (),geometric-mean
# Azimuth (),0
# Window Length (s),1000.0
# Total Number of Windows (),86
# Frequency Domain Window Rejection Performed (),True
# Lower frequency limit for peaks (Hz),None
# Upper frequency limit for peaks (Hz),None
# Number of Standard Deviations Used for Rejection () [n],2
# Number of Accepted Windows (),86
# Number of Rejected Windows (),0
# Distribution of f0 (),lognormal
# Median f0 (Hz) [LMf0],0.1625
# Lognormal standard deviation f0 () [SigmaLNf0],2.5344
# 68 % Confidence Interval f0 (Hz),0.0129,to,2.0494
# Median T0 (s) [LMT0],6.1526
# Lognormal standard deviation T0 () [SigmaLNT0],2.5344
# 68 % Confidence Interval T0 (s),0.4879,to,77.5807
# Median Curve Distribution (),lognormal
# Median Curve Peak Frequency (Hz) [f0mc],6.3682
# Median Curve Peak Amplitude (),2.7544
# Frequency (Hz),Median Curve,1 STD Below Median Curve,1 STD Above Median Curve
0.01,1.2221,0.5036,2.9659
0.0104,1.2244,0.5155,2.9078
0.0107,1.2353,0.5452,2.7987
0.0111,1.2453,0.5719,2.7115
0.0115,1.2541,0.5916,2.6584
0.0119,1.2633,0.6013,2.6542
0.0123,1.2692,0.6006,2.6822
0.0128,1.2714,0.5925,2.7283
0.0132,1.2722,0.5798,2.7916
0.0137,1.2713,0.5641,2.8651
0.0141,1.269,0.5462,2.9484
0.0146,1.2654,0.5266,3.0408
0.0152,1.2604,0.5055,3.1426
0.0157,1.2543,0.4828,3.2586
0.0163,1.2485,0.4598,3.39
0.0168,1.2465,0.4396,3.5349
0.0174,1.252,0.4254,3.6846
0.018,1.266,0.4176,3.8381
0.0187,1.285,0.417,3.9599
0.0193,1.3023,0.4252,3.989
0.02,1.3162,0.4405,3.9323
0.0207,1.3271,0.463,3.8036
0.0215,1.3349,0.49,3.6365
0.0222,1.338,0.5179,3.4564
0.023,1.3335,0.5486,3.2416
0.0238,1.3179,0.5866,2.9607
0.0247,1.2904,0.629,2.6475
0.0255,1.2563,0.6659,2.3703
0.0264,1.2312,0.6883,2.2024
0.0274,1.2318,0.6921,2.1924
0.0283,1.256,0.6956,2.2678
0.0293,1.2852,0.7127,2.3177
0.0304,1.2982,0.7288,2.3127
0.0314,1.2918,0.7389,2.2583
0.0326,1.2912,0.7475,2.2303
0.0337,1.306,0.7633,2.2344
0.0349,1.3181,0.7741,2.2443
0.0361,1.3238,0.7716,2.271
0.0374,1.3343,0.7627,2.3343
0.0387,1.3498,0.7681,2.3723
0.0401,1.3746,0.8097,2.3339
0.0415,1.4173,0.8552,2.3487
0.043,1.4694,0.88,2.4534
0.0445,1.522,0.9005,2.5723
0.0461,1.5819,0.9412,2.6586
0.0477,1.6662,1.0263,2.7051
0.0494,1.7712,1.1558,2.7143
0.0511,1.8616,1.2878,2.6912
0.0529,1.9094,1.3755,2.6506
0.0548,1.9211,1.4134,2.6111
0.0567,1.9159,1.4181,2.5886
0.0587,1.9104,1.3923,2.6212
0.0608,1.9034,1.366,2.6523
0.0629,1.8924,1.3687,2.6166
0.0652,1.8801,1.3988,2.5271
0.0675,1.874,1.4324,2.4516
0.0699,1.8743,1.4508,2.4216
0.0723,1.8615,1.4559,2.3802
0.0749,1.8168,1.4467,2.2815
0.0775,1.7419,1.4085,2.1543
0.0803,1.6398,1.3345,2.015
0.0831,1.5272,1.2471,1.8702
0.086,1.4356,1.1806,1.7456
0.0891,1.3832,1.1522,1.6604
0.0922,1.3611,1.148,1.6139
0.0955,1.3462,1.1383,1.5922
0.0988,1.3244,1.1114,1.5782
0.1023,1.2949,1.0782,1.5552
0.106,1.2708,1.0628,1.5196
0.1097,1.2737,1.0823,1.4988
0.1136,1.3121,1.1427,1.5067
0.1176,1.3622,1.2098,1.5338
0.1217,1.3751,1.2079,1.5653
0.126,1.3245,1.1486,1.5272
0.1305,1.2401,1.078,1.4265
0.1351,1.1642,1.0167,1.3331
0.1399,1.1179,0.9727,1.2849
0.1448,1.101,0.9547,1.2697
0.1499,1.1025,0.9601,1.266
0.1552,1.1112,0.9741,1.2675
0.1607,1.122,0.9885,1.2736
0.1664,1.1356,1.0041,1.2842
0.1723,1.1486,1.022,1.2909
0.1783,1.1604,1.0382,1.297
0.1846,1.1864,1.0584,1.3298
0.1912,1.2337,1.0919,1.394
0.1979,1.2868,1.1365,1.457
0.2049,1.3307,1.1773,1.5041
0.2121,1.3671,1.2105,1.5439
0.2196,1.4043,1.2473,1.581
0.2274,1.445,1.2952,1.612
0.2354,1.4869,1.3494,1.6384
0.2437,1.5297,1.3904,1.683
0.2524,1.5801,1.4274,1.7492
0.2613,1.6473,1.4812,1.832
0.2705,1.7302,1.5571,1.9225
0.2801,1.8104,1.6422,1.9959
0.2899,1.8631,1.7028,2.0384
0.3002,1.8808,1.7289,2.0461
0.3108,1.8891,1.7366,2.0551
0.3218,1.9224,1.7624,2.0969
0.3331,1.9858,1.8263,2.1593
0.3449,2.0507,1.8958,2.2181
0.3571,2.0823,1.9235,2.2542
0.3697,2.0838,1.9222,2.259
0.3827,2.0929,1.9345,2.2642
0.3963,2.1329,1.963,2.3176
0.4103,2.189,2.001,2.3948
0.4248,2.2284,2.0386,2.4358
0.4398,2.2325,2.058,2.4218
0.4553,2.1963,2.0351,2.3702
0.4714,2.1189,1.9622,2.2882
0.488,2.0192,1.874,2.1757
0.5053,1.9326,1.801,2.0738
0.5231,1.8788,1.75,2.0171
0.5416,1.8406,1.7148,1.9756
0.5607,1.788,1.6733,1.9106
0.5805,1.7197,1.6067,1.8407
0.601,1.657,1.5374,1.7859
0.6223,1.6165,1.4994,1.7427
0.6442,1.606,1.4992,1.7205
0.667,1.6343,1.5264,1.75
0.6906,1.7066,1.5884,1.8336
0.7149,1.8059,1.6802,1.9409
0.7402,1.8963,1.7715,2.0299
0.7663,1.9565,1.8378,2.0829
0.7934,1.9877,1.8618,2.1221
0.8214,1.986,1.8517,2.1301
0.8504,1.9506,1.8201,2.0905
0.8805,1.9147,1.7898,2.0482
0.9116,1.9232,1.7991,2.0559
0.9438,1.9855,1.8626,2.1165
0.9771,2.0678,1.9514,2.1912
1.0116,2.1319,2.0163,2.2541
1.0474,2.1601,2.042,2.285
1.0844,2.1495,2.0327,2.273
1.1227,2.1053,1.9904,2.2268
1.1623,2.0305,1.9108,2.1578
1.2034,1.9316,1.8055,2.0665
1.2459,1.8381,1.709,1.9769
1.2899,1.784,1.6538,1.9244
1.3355,1.7745,1.6449,1.9143
1.3826,1.7941,1.6589,1.9403
1.4315,1.8304,1.6806,1.9935
1.482,1.8771,1.7024,2.0697
1.5344,1.9324,1.729,2.1598
1.5886,1.9925,1.774,2.2378
1.6447,2.0413,1.8292,2.2779
1.7028,2.0647,1.8753,2.2732
1.7629,2.07,1.9039,2.2506
1.8252,2.0722,1.9142,2.2433
1.8897,2.0722,1.9079,2.2506
1.9564,2.0595,1.9032,2.2286
2.0255,2.026,1.8889,2.173
2.097,1.9707,1.8352,2.1161
2.1711,1.9036,1.7511,2.0694
2.2478,1.8392,1.6628,2.0344
2.3272,1.7828,1.5886,2.0006
2.4094,1.7319,1.5305,1.9599
2.4945,1.6864,1.4831,1.9176
2.5826,1.6464,1.4472,1.873
2.6738,1.6061,1.4164,1.8211
2.7683,1.5565,1.3766,1.7599
2.8661,1.4937,1.3192,1.6914
2.9673,1.4233,1.2489,1.6221
3.0721,1.3539,1.1778,1.5564
3.1806,1.2914,1.1138,1.4974
3.293,1.2414,1.057,1.458
3.4093,1.2084,1.0104,1.4453
3.5297,1.1909,0.9752,1.4542
3.6544,1.1824,0.9491,1.4731
3.7835,1.1774,0.9296,1.4912
3.9171,1.1744,0.917,1.504
4.0555,1.1781,0.9157,1.5155
4.1987,1.1961,0.9306,1.5373
4.347,1.2353,0.9631,1.5845
4.5006,1.3005,1.0121,1.6709
4.6595,1.3908,1.0758,1.798
4.8241,1.4971,1.1469,1.9541
4.9945,1.6034,1.213,2.1196
5.1709,1.6933,1.2665,2.2639
5.3536,1.7683,1.3176,2.373
5.5427,1.8727,1.3978,2.5088
5.7384,2.082,1.5682,2.7642
5.9411,2.4175,1.8861,3.0986
6.151,2.7136,2.2055,3.3388
6.3682,2.7544,2.2509,3.3705
6.5932,2.5489,2.0478,3.1726
6.8261,2.2843,1.8291,2.8528
7.0672,2.1262,1.7273,2.6173
7.3168,2.0918,1.7131,2.5543
7.5753,2.0502,1.666,2.5231
7.8428,1.905,1.5392,2.3577
8.1198,1.7175,1.4221,2.0743
8.4067,1.5934,1.3706,1.8524
8.7036,1.5698,1.3765,1.7901
9.011,1.6115,1.4196,1.8292
9.3293,1.6716,1.475,1.8945
9.6588,1.726,1.5276,1.9503
10.0,1.7615,1.5685,1.9783
