# hvsrpy output version 0.5.2
# File Name (),NA
# Method (),geometric-mean
# Azimuth (),0
# Window Length (s),1000.0
# Total Number of Windows (),86
# Frequency Domain Window Rejection Performed (),True
# Lower frequency limit for peaks (Hz),None
# Upper frequency limit for peaks (Hz),None
# Number of Standard Deviations Used for Rejection () [n],2
# Number of Accepted Windows (),65
# Number of Rejected Windows (),21
# Distribution of f0 (),lognormal
# Median f0 (Hz) [LMf0],0.0329
# Lognormal standard deviation f0 () [SigmaLNf0],0.4047
# 68 % Confidence Interval f0 (Hz),0.0219,to,0.0493
# Median T0 (s) [LMT0],30.411
# Lognormal standard deviation T0 () [SigmaLNT0],0.4047
# 68 % Confidence Interval T0 (s),20.2903,to,45.5797
# Median Curve Distribution (),lognormal
# Median Curve Peak Frequency (Hz) [f0mc],0.0477
# Median Curve Peak Amplitude (),2.3653
# Frequency (Hz),Median Curve,1 STD Below Median Curve,1 STD Above Median Curve
0.01,1.4095,0.5167,3.8451
0.0104,1.4152,0.5245,3.8184
0.0107,1.4269,0.5554,3.6658
0.0111,1.4427,0.5889,3.5341
0.0115,1.465,0.6212,3.4545
0.0119,1.4933,0.6468,3.448
0.0123,1.5199,0.6613,3.4936
0.0128,1.5442,0.6679,3.57
0.0132,1.5682,0.6696,3.6726
0.0137,1.5909,0.6679,3.7893
0.0141,1.613,0.664,3.9182
0.0146,1.6345,0.6588,4.055
0.0152,1.6552,0.653,4.1954
0.0157,1.6753,0.6465,4.3416
0.0163,1.6946,0.6389,4.4948
0.0168,1.7124,0.6284,4.6662
0.0174,1.7266,0.6149,4.8486
0.018,1.7345,0.6037,4.9834
0.0187,1.7348,0.6052,4.9731
0.0193,1.7278,0.6206,4.8105
0.02,1.7163,0.6419,4.5894
0.0207,1.7074,0.6635,4.3942
0.0215,1.7073,0.6828,4.2692
0.0222,1.7206,0.6987,4.2368
0.023,1.7509,0.7166,4.2781
0.0238,1.7919,0.7471,4.2978
0.0247,1.8253,0.8026,4.151
0.0255,1.85,0.8903,3.8445
0.0264,1.8778,0.977,3.6089
0.0274,1.8908,0.9887,3.616
0.0283,1.8627,0.9086,3.8185
0.0293,1.8096,0.8137,4.0246
0.0304,1.7681,0.7695,4.0627
0.0314,1.7335,0.7828,3.8391
0.0326,1.7046,0.8292,3.5041
0.0337,1.7113,0.8821,3.3201
0.0349,1.7566,0.9221,3.3463
0.0361,1.819,0.9445,3.5031
0.0374,1.8791,0.9423,3.7472
0.0387,1.9238,0.9223,4.013
0.0401,1.9605,0.9117,4.2157
0.0415,2.0188,0.9202,4.4288
0.043,2.1222,0.9429,4.7765
0.0445,2.2548,0.967,5.2578
0.0461,2.3568,0.9648,5.757
0.0477,2.3653,0.922,6.0677
0.0494,2.3032,0.861,6.1614
0.0511,2.2289,0.8085,6.1453
0.0529,2.1733,0.7741,6.102
0.0548,2.1407,0.7524,6.0913
0.0567,2.1238,0.7442,6.0607
0.0587,2.1299,0.755,6.008
0.0608,2.1536,0.788,5.8857
0.0629,2.1713,0.8346,5.649
0.0652,2.1737,0.8796,5.3719
0.0675,2.1623,0.917,5.0988
0.0699,2.1028,0.9378,4.7151
0.0723,1.9971,0.9356,4.2632
0.0749,1.8832,0.9162,3.871
0.0775,1.7759,0.8964,3.5185
0.0803,1.6702,0.8844,3.1542
0.0831,1.5624,0.8795,2.7757
0.086,1.4799,0.8836,2.4787
0.0891,1.4384,0.9008,2.2967
0.0922,1.4248,0.9263,2.1915
0.0955,1.4198,0.948,2.1265
0.0988,1.404,0.9534,2.0675
0.1023,1.3619,0.9343,1.9853
0.106,1.3072,0.8983,1.9021
0.1097,1.2806,0.8761,1.8721
0.1136,1.311,0.8987,1.9125
0.1176,1.3835,0.9587,1.9965
0.1217,1.4453,1.0132,2.0616
0.126,1.4502,1.0308,2.0402
0.1305,1.3986,1.0138,1.9294
0.1351,1.3226,0.9711,1.8015
0.1399,1.2565,0.932,1.694
0.1448,1.2186,0.9249,1.6057
0.1499,1.1978,0.9448,1.5185
0.1552,1.1736,0.9654,1.4266
0.1607,1.1493,0.9729,1.3578
0.1664,1.1391,0.9894,1.3116
0.1723,1.14,1.0203,1.2737
0.1783,1.1458,1.039,1.2636
0.1846,1.1628,1.0427,1.2966
0.1912,1.1953,1.0636,1.3432
0.1979,1.2388,1.1043,1.3896
0.2049,1.2864,1.1456,1.4446
0.2121,1.3375,1.1901,1.5031
0.2196,1.395,1.2518,1.5547
0.2274,1.4509,1.3119,1.6046
0.2354,1.4875,1.3526,1.6359
0.2437,1.5119,1.3784,1.6582
0.2524,1.5536,1.412,1.7093
0.2613,1.6288,1.478,1.7951
0.2705,1.7321,1.5673,1.9142
0.2801,1.8378,1.6476,2.05
0.2899,1.9036,1.6997,2.1319
0.3002,1.912,1.7251,2.1192
0.3108,1.9014,1.7308,2.0889
0.3218,1.9185,1.7369,2.1191
0.3331,1.9667,1.7763,2.1775
0.3449,2.015,1.8331,2.2149
0.3571,2.0409,1.8645,2.234
0.3697,2.0555,1.8622,2.2688
0.3827,2.0797,1.8681,2.3153
0.3963,2.1214,1.9159,2.3491
0.4103,2.1756,1.9876,2.3813
0.4248,2.2228,2.048,2.4125
0.4398,2.2402,2.0757,2.4178
0.4553,2.2174,2.0541,2.3936
0.4714,2.15,1.9833,2.3306
0.488,2.0448,1.8813,2.2225
0.5053,1.9355,1.7799,2.1046
0.5231,1.8599,1.7109,2.0219
0.5416,1.8185,1.6782,1.9705
0.5607,1.7785,1.6496,1.9175
0.5805,1.722,1.6023,1.8507
0.601,1.664,1.5507,1.7855
0.6223,1.6277,1.5171,1.7463
0.6442,1.6264,1.5073,1.755
0.667,1.6632,1.529,1.8091
0.6906,1.7333,1.5797,1.9018
0.7149,1.8194,1.6472,2.0096
0.7402,1.8971,1.7194,2.0932
0.7663,1.9569,1.786,2.1441
0.7934,1.9986,1.8428,2.1675
0.8214,2.0071,1.8684,2.1562
0.8504,1.973,1.8469,2.1076
0.8805,1.9312,1.8136,2.0563
0.9116,1.9298,1.8053,2.0629
0.9438,1.9763,1.8285,2.1359
0.9771,2.0418,1.8737,2.2251
1.0116,2.0996,1.915,2.302
1.0474,2.1332,1.9245,2.3645
1.0844,2.1321,1.8989,2.394
1.1227,2.1008,1.8505,2.3849
1.1623,2.0493,1.7925,2.3428
1.2034,1.9855,1.7323,2.2758
1.2459,1.9286,1.6747,2.2211
1.2899,1.8982,1.6261,2.2159
1.3355,1.8938,1.588,2.2586
1.3826,1.9052,1.5609,2.3253
1.4315,1.9267,1.5462,2.4008
1.482,1.9547,1.5385,2.4836
1.5344,1.9865,1.5341,2.5723
1.5886,2.0161,1.5302,2.6564
1.6447,2.0251,1.5149,2.7072
1.7028,1.9958,1.478,2.6951
1.7629,1.9404,1.4284,2.636
1.8252,1.8898,1.3867,2.5754
1.8897,1.8564,1.3585,2.5369
1.9564,1.8252,1.3275,2.5095
2.0255,1.775,1.2783,2.4647
2.097,1.7036,1.2188,2.3813
2.1711,1.6297,1.1675,2.2748
2.2478,1.5695,1.1303,2.1792
2.3272,1.5217,1.1021,2.1012
2.4094,1.4768,1.0762,2.0266
2.4945,1.4312,1.0481,1.9542
2.5826,1.3869,1.0154,1.8944
2.6738,1.3466,0.9813,1.848
2.7683,1.3109,0.9503,1.8083
2.8661,1.2759,0.9206,1.7683
2.9673,1.236,0.8913,1.7141
3.0721,1.1915,0.868,1.6356
3.1806,1.148,0.8526,1.5456
3.293,1.1094,0.8388,1.4674
3.4093,1.0744,0.8184,1.4104
3.5297,1.0398,0.7939,1.3618
3.6544,1.0042,0.7721,1.3062
3.7835,0.9685,0.7521,1.2472
3.9171,0.9358,0.7302,1.1993
4.0555,0.9124,0.7105,1.1717
4.1987,0.9045,0.7025,1.1645
4.347,0.9145,0.7118,1.1751
4.5006,0.9395,0.7322,1.2055
4.6595,0.9709,0.754,1.2502
4.8241,1.0004,0.7732,1.2944
4.9945,1.0276,0.7918,1.3337
5.1709,1.0627,0.8151,1.3854
5.3536,1.1135,0.8435,1.47
5.5427,1.1673,0.8689,1.5681
5.7384,1.1989,0.8858,1.6227
5.9411,1.197,0.8979,1.5957
6.151,1.1732,0.9091,1.514
6.3682,1.1554,0.918,1.4542
6.5932,1.1591,0.925,1.4525
6.8261,1.1709,0.9363,1.4642
7.0672,1.1735,0.9514,1.4473
7.3168,1.1678,0.9671,1.4101
7.5753,1.1663,0.9808,1.387
7.8428,1.1765,0.9935,1.3932
8.1198,1.1935,1.0057,1.4163
8.4067,1.2089,1.0132,1.4424
8.7036,1.219,1.0142,1.4652
9.011,1.2243,1.0113,1.4821
9.3293,1.2264,1.0071,1.4934
9.6588,1.2263,1.0028,1.4995
10.0,1.2247,0.9998,1.5001
