# hvsrpy output version 0.5.2
# File Name (),NA
# Method (),geometric-mean
# Azimuth (),0
# Window Length (s),120.0
# Total Number of Windows (),720
# Frequency Domain Window Rejection Performed (),True
# Lower frequency limit for peaks (Hz),0.1
# Upper frequency limit for peaks (Hz),9.9
# Number of Standard Deviations Used for Rejection () [n],2
# Number of Accepted Windows (),698
# Number of Rejected Windows (),22
# Distribution of f0 (),lognormal
# Median f0 (Hz) [LMf0],0.3816
# Lognormal standard deviation f0 () [SigmaLNf0],0.8974
# 68 % Confidence Interval f0 (Hz),0.1555,to,0.9361
# Median T0 (s) [LMT0],2.6207
# Lognormal standard deviation T0 () [SigmaLNT0],0.8974
# 68 % Confidence Interval T0 (s),1.0683,to,6.4289
# Median Curve Distribution (),lognormal
# Median Curve Peak Frequency (Hz) [f0mc],0.9885
# Median Curve Peak Amplitude (),1.8244
# Frequency (Hz),Median Curve,1 STD Below Median Curve,1 STD Above Median Curve
0.1,1.2822,0.6997,2.3499
0.1023,1.2747,0.7215,2.2521
0.1047,1.2724,0.7458,2.1708
0.1072,1.2737,0.767,2.1153
0.1097,1.2772,0.781,2.0889
0.1123,1.285,0.7881,2.0951
0.1149,1.2966,0.7981,2.1065
0.1176,1.3084,0.8098,2.114
0.1203,1.3143,0.8125,2.1259
0.1232,1.3099,0.8034,2.1356
0.126,1.2945,0.79,2.1214
0.129,1.2712,0.7809,2.0695
0.132,1.2472,0.7764,2.0037
0.1351,1.2284,0.7741,1.9495
0.1383,1.2149,0.7754,1.9034
0.1415,1.2036,0.7792,1.8592
0.1448,1.1913,0.7808,1.8177
0.1482,1.1767,0.7783,1.7791
0.1517,1.1602,0.7742,1.7387
0.1552,1.1445,0.7719,1.697
0.1589,1.133,0.7713,1.6642
0.1626,1.1264,0.7713,1.645
0.1664,1.1222,0.7722,1.6309
0.1703,1.1178,0.7746,1.6131
0.1743,1.1127,0.7781,1.591
0.1783,1.1083,0.782,1.5706
0.1825,1.1064,0.7858,1.5579
0.1868,1.1077,0.7891,1.5549
0.1912,1.1112,0.7924,1.5583
0.1956,1.1151,0.7974,1.5594
0.2002,1.118,0.8035,1.5555
0.2049,1.1192,0.8078,1.5506
0.2097,1.1192,0.8097,1.547
0.2146,1.1183,0.8115,1.5411
0.2196,1.1167,0.8146,1.5309
0.2248,1.1164,0.8186,1.5225
0.23,1.1206,0.8247,1.5228
0.2354,1.1317,0.8364,1.5312
0.2409,1.149,0.855,1.5442
0.2466,1.1692,0.8759,1.5607
0.2524,1.1872,0.8917,1.5806
0.2583,1.2005,0.9,1.6013
0.2643,1.2125,0.9061,1.6226
0.2705,1.2308,0.9199,1.6467
0.2768,1.2622,0.9488,1.679
0.2833,1.3081,0.9906,1.7274
0.2899,1.3634,1.036,1.7942
0.2967,1.4186,1.0764,1.8696
0.3037,1.4663,1.1079,1.9408
0.3108,1.5041,1.1319,1.9986
0.3181,1.5332,1.1553,2.0346
0.3255,1.5569,1.1832,2.0487
0.3331,1.5795,1.2131,2.0566
0.3409,1.6034,1.2393,2.0744
0.3489,1.6286,1.2611,2.1031
0.3571,1.653,1.2808,2.1333
0.3654,1.6738,1.2989,2.1568
0.374,1.6893,1.3145,2.1709
0.3827,1.7002,1.3266,2.1789
0.3917,1.7078,1.3339,2.1866
0.4009,1.7139,1.3374,2.1964
0.4103,1.7213,1.3431,2.206
0.4199,1.7337,1.3586,2.2122
0.4297,1.7507,1.3835,2.2155
0.4398,1.7654,1.4062,2.2163
0.4501,1.7672,1.4139,2.2088
0.4606,1.7506,1.4019,2.186
0.4714,1.72,1.3766,2.1489
0.4824,1.6856,1.3493,2.1058
0.4937,1.6566,1.3284,2.066
0.5053,1.6366,1.3158,2.0356
0.5171,1.624,1.3087,2.0151
0.5292,1.6151,1.3035,2.0012
0.5416,1.6076,1.2993,1.9892
0.5543,1.6009,1.2955,1.9782
0.5672,1.5957,1.2926,1.9698
0.5805,1.5938,1.293,1.9644
0.5941,1.5976,1.3008,1.9622
0.608,1.6088,1.3153,1.9678
0.6223,1.6264,1.332,1.9859
0.6368,1.6469,1.3484,2.0114
0.6517,1.6657,1.3646,2.0331
0.667,1.68,1.3803,2.0448
0.6826,1.6892,1.3928,2.0487
0.6986,1.6941,1.4001,2.0499
0.7149,1.6967,1.4046,2.0495
0.7317,1.699,1.4103,2.0469
0.7488,1.7026,1.4171,2.0457
0.7663,1.7072,1.4223,2.0492
0.7843,1.7118,1.4265,2.0541
0.8026,1.7165,1.4334,2.0555
0.8214,1.7233,1.4452,2.0551
0.8407,1.7351,1.46,2.0622
0.8603,1.7528,1.4757,2.082
0.8805,1.7736,1.4928,2.1073
0.9011,1.793,1.5113,2.1272
0.9222,1.8079,1.5278,2.1394
0.9438,1.8181,1.5388,2.1482
0.9659,1.8242,1.5443,2.1548
0.9885,1.8244,1.5442,2.1553
1.0116,1.8149,1.5354,2.1453
1.0353,1.7933,1.5156,2.122
1.0596,1.762,1.4878,2.0866
1.0844,1.729,1.4599,2.0476
1.1098,1.7044,1.4401,2.0172
1.1357,1.6957,1.4345,2.0045
1.1623,1.7045,1.4437,2.0124
1.1895,1.726,1.4634,2.0357
1.2174,1.7508,1.4865,2.0621
1.2459,1.769,1.504,2.0807
1.2751,1.7769,1.51,2.0909
1.3049,1.7784,1.5064,2.0996
1.3355,1.7813,1.5009,2.114
1.3667,1.7898,1.4995,2.1363
1.3987,1.8014,1.5012,2.1616
1.4315,1.8094,1.5009,2.1814
1.465,1.8091,1.4955,2.1885
1.4993,1.8017,1.486,2.1845
1.5344,1.7922,1.4734,2.1801
1.5703,1.7846,1.4577,2.1848
1.6071,1.7784,1.4394,2.1972
1.6447,1.77,1.4192,2.2075
1.6832,1.756,1.3975,2.2066
1.7226,1.7357,1.374,2.1927
1.7629,1.7112,1.3499,2.1693
1.8042,1.6871,1.3291,2.1415
1.8464,1.6677,1.316,2.1133
1.8897,1.6552,1.3125,2.0874
1.9339,1.6479,1.3148,2.0655
1.9792,1.6411,1.3162,2.0462
2.0255,1.6289,1.3107,2.0244
2.0729,1.6076,1.2952,1.9954
2.1215,1.5773,1.2695,1.9597
2.1711,1.541,1.2359,1.9215
2.2219,1.503,1.1989,1.8842
2.274,1.466,1.1622,1.8492
2.3272,1.4307,1.1275,1.8155
2.3817,1.3958,1.0947,1.7798
2.4374,1.3597,1.0629,1.7394
2.4945,1.3218,1.0316,1.6937
2.5529,1.2827,1.0006,1.6445
2.6127,1.2441,0.9704,1.595
2.6738,1.2079,0.9423,1.5484
2.7364,1.1752,0.9171,1.5059
2.8005,1.1455,0.8939,1.4679
2.8661,1.1176,0.8709,1.4341
2.9332,1.0901,0.8468,1.4033
3.0018,1.0632,0.8227,1.374
3.0721,1.0378,0.8003,1.3457
3.144,1.0152,0.781,1.3195
3.2176,0.9962,0.7653,1.2968
3.293,0.9814,0.7529,1.2792
3.3701,0.9708,0.7435,1.2675
3.449,0.9644,0.7374,1.2612
3.5297,0.9618,0.735,1.2586
3.6123,0.9627,0.7365,1.2583
3.6969,0.9667,0.7412,1.2608
3.7835,0.974,0.7482,1.268
3.872,0.9851,0.7571,1.2816
3.9627,0.9995,0.7677,1.3014
4.0555,1.0155,0.7789,1.324
4.1504,1.0303,0.7895,1.3447
4.2476,1.0418,0.7981,1.3598
4.347,1.0495,0.8045,1.3689
4.4488,1.0548,0.8095,1.3746
4.5529,1.06,0.8147,1.3793
4.6595,1.067,0.8223,1.3844
4.7686,1.0769,0.8338,1.3907
4.8803,1.0902,0.8492,1.3995
4.9945,1.107,0.8677,1.4124
5.1114,1.1268,0.8877,1.4304
5.2311,1.1489,0.9076,1.4543
5.3536,1.1721,0.9257,1.484
5.4789,1.1949,0.9409,1.5173
5.6072,1.2149,0.9535,1.5479
5.7384,1.2294,0.9655,1.5655
5.8728,1.2364,0.9785,1.5621
6.0103,1.2356,0.9915,1.5397
6.151,1.2297,1.0006,1.5112
6.295,1.2232,1.0035,1.4909
6.4424,1.2206,1.0036,1.4844
6.5932,1.2245,1.0072,1.4887
6.7475,1.2358,1.0178,1.5004
6.9055,1.2533,1.0348,1.5179
7.0672,1.2743,1.0553,1.5388
7.2326,1.2948,1.0749,1.5597
7.402,1.312,1.0894,1.5802
7.5753,1.3266,1.0981,1.6027
7.7526,1.3415,1.1046,1.6291
7.9341,1.3597,1.1143,1.6593
8.1198,1.3835,1.1308,1.6926
8.3099,1.4132,1.1552,1.7288
8.5045,1.4479,1.1852,1.7687
8.7036,1.4855,1.2167,1.8136
8.9074,1.5244,1.2465,1.8642
9.1159,1.5633,1.2733,1.9194
9.3293,1.601,1.2971,1.9761
9.5477,1.6356,1.3176,2.0304
9.7712,1.6656,1.3341,2.0795
10.0,1.6904,1.3465,2.1222
