# hvsrpy output version 0.5.2
# File Name (),NA
# Method (),geometric-mean
# Azimuth (),0
# Window Length (s),120.0
# Total Number of Windows (),720
# Frequency Domain Window Rejection Performed (),True
# Lower frequency limit for peaks (Hz),0.1
# Upper frequency limit for peaks (Hz),9.9
# Number of Standard Deviations Used for Rejection () [n],2
# Number of Accepted Windows (),650
# Number of Rejected Windows (),70
# Distribution of f0 (),lognormal
# Median f0 (Hz) [LMf0],0.373
# Lognormal standard deviation f0 () [SigmaLNf0],0.8216
# 68 % Confidence Interval f0 (Hz),0.164,to,0.8482
# Median T0 (s) [LMT0],2.6811
# Lognormal standard deviation T0 () [SigmaLNT0],0.8216
# 68 % Confidence Interval T0 (s),1.179,to,6.0971
# Median Curve Distribution (),lognormal
# Median Curve Peak Frequency (Hz) [f0mc],0.9885
# Median Curve Peak Amplitude (),1.8485
# Frequency (Hz),Median Curve,1 STD Below Median Curve,1 STD Above Median Curve
0.1,1.2177,0.6955,2.132
0.1023,1.2072,0.703,2.0731
0.1047,1.1944,0.7074,2.0168
0.1072,1.1821,0.7137,1.9579
0.1097,1.1734,0.7165,1.9216
0.1123,1.1684,0.7161,1.9066
0.1149,1.1665,0.7202,1.8893
0.1176,1.1663,0.7266,1.8719
0.1203,1.1651,0.729,1.8621
0.1232,1.1604,0.7297,1.8453
0.126,1.1519,0.7328,1.8107
0.129,1.1434,0.7368,1.7742
0.132,1.1395,0.7391,1.7568
0.1351,1.1413,0.741,1.7579
0.1383,1.1449,0.7442,1.7614
0.1415,1.1471,0.7476,1.7598
0.1448,1.1466,0.7509,1.7509
0.1482,1.143,0.754,1.7327
0.1517,1.1362,0.7534,1.7135
0.1552,1.1281,0.7507,1.6955
0.1589,1.1231,0.7508,1.6798
0.1626,1.1254,0.7573,1.6723
0.1664,1.137,0.7727,1.6729
0.1703,1.1562,0.7945,1.6825
0.1743,1.177,0.8168,1.696
0.1783,1.1915,0.8347,1.7007
0.1825,1.194,0.8446,1.6879
0.1868,1.1838,0.8442,1.66
0.1912,1.1653,0.8346,1.6269
0.1956,1.1446,0.8204,1.5969
0.2002,1.1268,0.8067,1.574
0.2049,1.1149,0.7975,1.5587
0.2097,1.1082,0.7939,1.547
0.2146,1.1038,0.7933,1.5359
0.2196,1.1003,0.7942,1.5243
0.2248,1.1003,0.8001,1.5131
0.23,1.1084,0.8141,1.5092
0.2354,1.1273,0.8334,1.5249
0.2409,1.1546,0.8557,1.558
0.2466,1.1831,0.8805,1.5898
0.2524,1.2048,0.9029,1.6078
0.2583,1.2169,0.9159,1.6168
0.2643,1.2259,0.9234,1.6275
0.2705,1.2435,0.9392,1.6462
0.2768,1.278,0.972,1.6802
0.2833,1.3291,1.0179,1.7354
0.2899,1.3883,1.0677,1.8054
0.2967,1.4446,1.114,1.8733
0.3037,1.4896,1.1526,1.9253
0.3108,1.5205,1.1812,1.9573
0.3181,1.5391,1.2002,1.9737
0.3255,1.5507,1.2131,1.9823
0.3331,1.5623,1.2239,1.9945
0.3409,1.5795,1.2345,2.0208
0.3489,1.6034,1.2464,2.0627
0.3571,1.6314,1.2588,2.1144
0.3654,1.6582,1.2713,2.1629
0.374,1.6791,1.2872,2.1903
0.3827,1.6911,1.3076,2.1872
0.3917,1.6943,1.3267,2.1637
0.4009,1.6928,1.3364,2.1442
0.4103,1.6932,1.3369,2.1444
0.4199,1.701,1.3387,2.1614
0.4297,1.7168,1.3501,2.183
0.4398,1.7344,1.3701,2.1957
0.4501,1.7442,1.3886,2.191
0.4606,1.7402,1.3958,2.1695
0.4714,1.7237,1.3895,2.1382
0.4824,1.701,1.3739,2.1059
0.4937,1.6781,1.3554,2.0775
0.5053,1.6582,1.3386,2.0541
0.5171,1.6423,1.3252,2.0353
0.5292,1.63,1.3167,2.0179
0.5416,1.6214,1.3147,1.9997
0.5543,1.6169,1.3165,1.9859
0.5672,1.6161,1.3185,1.9809
0.5805,1.6174,1.3205,1.9811
0.5941,1.6197,1.3238,1.9816
0.608,1.6231,1.3292,1.982
0.6223,1.6288,1.3368,1.9847
0.6368,1.6378,1.3479,1.9901
0.6517,1.6501,1.3634,1.9971
0.667,1.6648,1.3812,2.0065
0.6826,1.6796,1.3977,2.0183
0.6986,1.6924,1.4118,2.0286
0.7149,1.7029,1.4242,2.0362
0.7317,1.7123,1.4345,2.0438
0.7488,1.7204,1.4431,2.0511
0.7663,1.7262,1.4495,2.0558
0.7843,1.729,1.4534,2.0569
0.8026,1.7307,1.4576,2.0549
0.8214,1.7357,1.4676,2.0528
0.8407,1.7485,1.4855,2.058
0.8603,1.7695,1.5074,2.0772
0.8805,1.7945,1.528,2.1074
0.9011,1.8169,1.5452,2.1363
0.9222,1.833,1.5595,2.1545
0.9438,1.8429,1.5712,2.1617
0.9659,1.8481,1.5793,2.1626
0.9885,1.8485,1.5828,2.1588
1.0116,1.8422,1.5799,2.1481
1.0353,1.8277,1.5692,2.1287
1.0596,1.8063,1.5509,2.1036
1.0844,1.7828,1.5282,2.0798
1.1098,1.7638,1.5071,2.0643
1.1357,1.7547,1.4937,2.0613
1.1623,1.7567,1.4911,2.0695
1.1895,1.7656,1.4983,2.0805
1.2174,1.7731,1.5094,2.0828
1.2459,1.772,1.5157,2.0717
1.2751,1.7623,1.5124,2.0535
1.3049,1.7519,1.5052,2.039
1.3355,1.75,1.5035,2.037
1.3667,1.7592,1.5105,2.0489
1.3987,1.7716,1.519,2.0663
1.4315,1.7749,1.5173,2.0761
1.465,1.7618,1.4998,2.0695
1.4993,1.7354,1.471,2.0473
1.5344,1.705,1.441,2.0174
1.5703,1.6781,1.4165,1.988
1.6071,1.6557,1.3966,1.9629
1.6447,1.6347,1.3768,1.9409
1.6832,1.6116,1.3529,1.9197
1.7226,1.5861,1.3243,1.8996
1.7629,1.5605,1.294,1.882
1.8042,1.5388,1.2674,1.8684
1.8464,1.5249,1.25,1.8602
1.8897,1.5206,1.245,1.8571
1.9339,1.5241,1.2523,1.855
1.9792,1.5304,1.2672,1.8482
2.0255,1.5322,1.2812,1.8325
2.0729,1.5235,1.2855,1.8054
2.1215,1.5013,1.2764,1.7657
2.1711,1.4675,1.2558,1.7148
2.2219,1.4273,1.2274,1.6598
2.274,1.3865,1.1948,1.609
2.3272,1.3484,1.1606,1.5665
2.3817,1.3139,1.1275,1.531
2.4374,1.2824,1.0973,1.4988
2.4945,1.253,1.0702,1.4671
2.5529,1.2244,1.0442,1.4357
2.6127,1.1953,1.0168,1.4053
2.6738,1.1653,0.9864,1.3766
2.7364,1.1347,0.9532,1.3508
2.8005,1.1052,0.9192,1.3289
2.8661,1.0788,0.8877,1.311
2.9332,1.0566,0.8614,1.2961
3.0018,1.0393,0.8412,1.2839
3.0721,1.0265,0.8266,1.2748
3.144,1.0182,0.8169,1.2692
3.2176,1.0139,0.8117,1.2665
3.293,1.0129,0.8106,1.2657
3.3701,1.0141,0.8126,1.2656
3.449,1.0165,0.8163,1.2659
3.5297,1.0196,0.8205,1.2669
3.6123,1.0231,0.8251,1.2685
3.6969,1.0275,0.8305,1.2712
3.7835,1.034,0.8372,1.277
3.872,1.0435,0.845,1.2886
3.9627,1.056,0.8534,1.3067
4.0555,1.0701,0.8614,1.3293
4.1504,1.0834,0.8677,1.3527
4.2476,1.0936,0.8708,1.3734
4.347,1.0997,0.8703,1.3896
4.4488,1.1023,0.8674,1.4008
4.5529,1.1032,0.8645,1.4077
4.6595,1.1044,0.8639,1.4118
4.7686,1.1077,0.8674,1.4145
4.8803,1.1145,0.8762,1.4174
4.9945,1.1267,0.8915,1.4238
5.1114,1.1463,0.9133,1.4387
5.2311,1.1743,0.9394,1.4679
5.3536,1.2098,0.9651,1.5166
5.4789,1.2501,0.9854,1.5859
5.6072,1.2902,0.999,1.6663
5.7384,1.3245,1.0091,1.7386
5.8728,1.3478,1.02,1.7809
6.0103,1.3567,1.034,1.7802
6.151,1.3518,1.0481,1.7435
6.295,1.339,1.0534,1.7021
6.4424,1.3282,1.0451,1.688
6.5932,1.3277,1.0331,1.7063
6.7475,1.3402,1.03,1.7438
6.9055,1.3646,1.0406,1.7896
7.0672,1.3984,1.0638,1.8381
7.2326,1.4363,1.0936,1.8863
7.402,1.4677,1.1184,1.9262
7.5753,1.4812,1.1268,1.9469
7.7526,1.4758,1.1163,1.951
7.9341,1.4603,1.0939,1.9494
8.1198,1.4441,1.0709,1.9473
8.3099,1.4339,1.0565,1.9461
8.5045,1.4348,1.0567,1.9481
8.7036,1.4495,1.0737,1.9569
8.9074,1.4767,1.1044,1.9744
9.1159,1.5103,1.1407,1.9996
9.3293,1.5434,1.1742,2.0286
9.5477,1.5723,1.2016,2.0575
9.7712,1.5971,1.2232,2.0853
10.0,1.6186,1.24,2.1129
