# hvsrpy output version 0.5.2
# File Name (),NA
# Method (),geometric-mean
# Azimuth (),0
# Window Length (s),120.0
# Total Number of Windows (),720
# Frequency Domain Window Rejection Performed (),True
# Lower frequency limit for peaks (Hz),0.1
# Upper frequency limit for peaks (Hz),9.9
# Number of Standard Deviations Used for Rejection () [n],2
# Number of Accepted Windows (),611
# Number of Rejected Windows (),109
# Distribution of f0 (),lognormal
# Median f0 (Hz) [LMf0],0.3184
# Lognormal standard deviation f0 () [SigmaLNf0],0.7552
# 68 % Confidence Interval f0 (Hz),0.1496,to,0.6776
# Median T0 (s) [LMT0],3.1403
# Lognormal standard deviation T0 () [SigmaLNT0],0.7552
# 68 % Confidence Interval T0 (s),1.4757,to,6.6827
# Median Curve Distribution (),lognormal
# Median Curve Peak Frequency (Hz) [f0mc],0.9659
# Median Curve Peak Amplitude (),1.8198
# Frequency (Hz),Median Curve,1 STD Below Median Curve,1 STD Above Median Curve
0.1,1.2752,0.7596,2.141
0.1023,1.2795,0.776,2.1097
0.1047,1.2812,0.775,2.1183
0.1072,1.2794,0.7686,2.1298
0.1097,1.2743,0.7719,2.1036
0.1123,1.2681,0.782,2.0562
0.1149,1.2606,0.7923,2.0054
0.1176,1.2485,0.8006,1.9469
0.1203,1.2282,0.8049,1.874
0.1232,1.2034,0.7962,1.8188
0.126,1.1825,0.7733,1.808
0.129,1.1723,0.7515,1.8286
0.132,1.1738,0.7431,1.854
0.1351,1.1813,0.7487,1.8638
0.1383,1.1858,0.76,1.8503
0.1415,1.1809,0.7661,1.8205
0.1448,1.1657,0.7634,1.7799
0.1482,1.1446,0.7565,1.7317
0.1517,1.1254,0.7497,1.6894
0.1552,1.1147,0.7494,1.6581
0.1589,1.1162,0.7603,1.6385
0.1626,1.1302,0.7775,1.6428
0.1664,1.1537,0.7967,1.6707
0.1703,1.1815,0.8187,1.7051
0.1743,1.2069,0.8417,1.7304
0.1783,1.2226,0.8602,1.7377
0.1825,1.2239,0.8659,1.7299
0.1868,1.2111,0.8562,1.7129
0.1912,1.189,0.8396,1.6837
0.1956,1.1654,0.8232,1.6499
0.2002,1.1474,0.8118,1.6218
0.2049,1.1381,0.8084,1.6022
0.2097,1.1364,0.8117,1.5908
0.2146,1.1388,0.8195,1.5824
0.2196,1.1424,0.83,1.5723
0.2248,1.1465,0.8403,1.5643
0.23,1.153,0.8499,1.5642
0.2354,1.1647,0.8625,1.5729
0.2409,1.1847,0.8816,1.592
0.2466,1.2123,0.9065,1.6211
0.2524,1.2425,0.9326,1.6553
0.2583,1.271,0.9564,1.6892
0.2643,1.298,0.9805,1.7182
0.2705,1.3269,1.0086,1.7455
0.2768,1.3614,1.0431,1.7768
0.2833,1.4026,1.0824,1.8175
0.2899,1.4474,1.1202,1.8703
0.2967,1.4891,1.1506,1.9273
0.3037,1.5204,1.1702,1.9753
0.3108,1.5378,1.1791,2.0055
0.3181,1.5439,1.1825,2.0156
0.3255,1.5443,1.1869,2.0094
0.3331,1.5447,1.1937,1.999
0.3409,1.5496,1.1998,2.0012
0.3489,1.5617,1.2052,2.0236
0.3571,1.5816,1.2153,2.0584
0.3654,1.6071,1.2343,2.0925
0.374,1.6337,1.2589,2.1201
0.3827,1.6568,1.2825,2.1403
0.3917,1.6725,1.3017,2.1489
0.4009,1.6801,1.3165,2.1441
0.4103,1.6843,1.328,2.1363
0.4199,1.6932,1.3407,2.1383
0.4297,1.711,1.359,2.1542
0.4398,1.7332,1.3776,2.1807
0.4501,1.7487,1.3863,2.2058
0.4606,1.7483,1.3838,2.2086
0.4714,1.7316,1.3742,2.1819
0.4824,1.7068,1.3589,2.1439
0.4937,1.6832,1.3397,2.1147
0.5053,1.6654,1.3231,2.0964
0.5171,1.6529,1.3136,2.0798
0.5292,1.6415,1.3092,2.0583
0.5416,1.6287,1.3058,2.0314
0.5543,1.6156,1.3018,2.0049
0.5672,1.6053,1.2992,1.9836
0.5805,1.5994,1.3009,1.9663
0.5941,1.5972,1.3071,1.9517
0.608,1.5984,1.3148,1.9431
0.6223,1.6035,1.3242,1.9418
0.6368,1.6134,1.3383,1.9451
0.6517,1.6268,1.3558,1.9518
0.667,1.6402,1.3707,1.9628
0.6826,1.6501,1.3797,1.9737
0.6986,1.6554,1.3852,1.9781
0.7149,1.659,1.3914,1.978
0.7317,1.6655,1.401,1.9799
0.7488,1.6761,1.4134,1.9877
0.7663,1.6883,1.4253,1.9999
0.7843,1.6995,1.4348,2.013
0.8026,1.7096,1.4443,2.0237
0.8214,1.7209,1.4567,2.0331
0.8407,1.7358,1.4712,2.048
0.8603,1.755,1.4859,2.0728
0.8805,1.776,1.5013,2.1009
0.9011,1.7948,1.5173,2.1231
0.9222,1.8087,1.5318,2.1357
0.9438,1.8171,1.542,2.1413
0.9659,1.8198,1.5462,2.1419
0.9885,1.814,1.5425,2.1334
1.0116,1.7949,1.5271,2.1095
1.0353,1.7598,1.4964,2.0696
1.0596,1.7138,1.4536,2.0206
1.0844,1.6679,1.4093,1.9739
1.1098,1.6336,1.3755,1.94
1.1357,1.6177,1.3598,1.9245
1.1623,1.6212,1.3647,1.9261
1.1895,1.6391,1.386,1.9384
1.2174,1.662,1.4134,1.9545
1.2459,1.6802,1.4345,1.9679
1.2751,1.689,1.4454,1.9737
1.3049,1.6926,1.4519,1.9731
1.3355,1.6985,1.4602,1.9757
1.3667,1.7102,1.4706,1.9889
1.3987,1.7218,1.4779,2.0059
1.4315,1.7218,1.4749,2.01
1.465,1.703,1.4573,1.9902
1.4993,1.6694,1.4289,1.9504
1.5344,1.6321,1.3981,1.9052
1.5703,1.601,1.3709,1.8696
1.6071,1.5798,1.3494,1.8495
1.6447,1.5661,1.3324,1.8408
1.6832,1.5544,1.3161,1.8358
1.7226,1.5393,1.2959,1.8283
1.7629,1.5192,1.2715,1.8151
1.8042,1.4978,1.2482,1.7973
1.8464,1.4824,1.2333,1.7819
1.8897,1.4794,1.2323,1.7761
1.9339,1.4901,1.2456,1.7827
1.9792,1.5096,1.2682,1.7969
2.0255,1.5283,1.2923,1.8073
2.0729,1.5373,1.3101,1.8039
2.1215,1.5331,1.3163,1.7856
2.1711,1.518,1.309,1.7603
2.2219,1.4965,1.291,1.7346
2.274,1.4721,1.268,1.709
2.3272,1.4462,1.2428,1.6829
2.3817,1.4196,1.2148,1.6588
2.4374,1.393,1.184,1.6389
2.4945,1.3677,1.1535,1.6216
2.5529,1.3443,1.126,1.6049
2.6127,1.3228,1.1015,1.5885
2.6738,1.3025,1.0789,1.5724
2.7364,1.2825,1.0569,1.5562
2.8005,1.2623,1.0355,1.5387
2.8661,1.2421,1.0157,1.5188
2.9332,1.2227,0.9992,1.4963
3.0018,1.2056,0.9869,1.4728
3.0721,1.192,0.9787,1.4518
3.144,1.1826,0.9734,1.4367
3.2176,1.1776,0.9699,1.4298
3.293,1.1765,0.968,1.4299
3.3701,1.1784,0.9685,1.4338
3.449,1.1819,0.9716,1.4378
3.5297,1.1854,0.9758,1.4401
3.6123,1.1876,0.9797,1.4398
3.6969,1.1881,0.9824,1.4369
3.7835,1.1876,0.9841,1.4332
3.872,1.1878,0.9848,1.4327
3.9627,1.1899,0.9847,1.4378
4.0555,1.1931,0.9839,1.4469
4.1504,1.1943,0.9809,1.4542
4.2476,1.1898,0.973,1.4548
4.347,1.1779,0.9587,1.4472
4.4488,1.1603,0.939,1.4338
4.5529,1.1412,0.9175,1.4196
4.6595,1.1257,0.8988,1.4098
4.7686,1.118,0.8871,1.409
4.8803,1.1218,0.8852,1.4218
4.9945,1.1407,0.8946,1.4547
5.1114,1.1783,0.9148,1.5177
5.2311,1.2361,0.943,1.6203
5.3536,1.3089,0.9746,1.7577
5.4789,1.3813,1.0051,1.8983
5.6072,1.4319,1.0304,1.9898
5.7384,1.4425,1.0465,1.9884
5.8728,1.4089,1.0515,1.8877
6.0103,1.343,1.0452,1.7256
6.151,1.2685,1.0256,1.5689
6.295,1.2093,0.9914,1.4752
6.4424,1.1785,0.9572,1.4509
6.5932,1.1741,0.9395,1.4674
6.7475,1.1846,0.9362,1.4988
6.9055,1.1968,0.936,1.5302
7.0672,1.2032,0.9301,1.5565
7.2326,1.2009,0.9155,1.5752
7.402,1.1896,0.895,1.5812
7.5753,1.1737,0.8758,1.5728
7.7526,1.1617,0.8655,1.5592
7.9341,1.1613,0.8687,1.5524
8.1198,1.1752,0.8865,1.558
8.3099,1.202,0.9181,1.5737
8.5045,1.2377,0.9609,1.5943
8.7036,1.2783,1.0096,1.6185
8.9074,1.32,1.0559,1.6502
9.1159,1.3597,1.0934,1.6908
9.3293,1.3951,1.1215,1.7355
9.5477,1.4259,1.1421,1.7802
9.7712,1.4521,1.1562,1.8237
10.0,1.4739,1.1648,1.865
