# hvsrpy output version 0.5.2
# File Name (),NA
# Method (),geometric-mean
# Azimuth (),0
# Window Length (s),1000.0
# Total Number of Windows (),86
# Frequency Domain Window Rejection Performed (),True
# Lower frequency limit for peaks (Hz),None
# Upper frequency limit for peaks (Hz),None
# Number of Standard Deviations Used for Rejection () [n],2
# Number of Accepted Windows (),86
# Number of Rejected Windows (),0
# Distribution of f0 (),lognormal
# Median f0 (Hz) [LMf0],0.1781
# Lognormal standard deviation f0 () [SigmaLNf0],2.4774
# 68 % Confidence Interval f0 (Hz),0.0149,to,2.1207
# Median T0 (s) [LMT0],5.6162
# Lognormal standard deviation T0 () [SigmaLNT0],2.4774
# 68 % Confidence Interval T0 (s),0.4715,to,66.8923
# Median Curve Distribution (),lognormal
# Median Curve Peak Frequency (Hz) [f0mc],6.151
# Median Curve Peak Amplitude (),2.6472
# Frequency (Hz),Median Curve,1 STD Below Median Curve,1 STD Above Median Curve
0.01,1.419,0.5329,3.7786
0.0104,1.4255,0.5394,3.7669
0.0107,1.4215,0.5635,3.5861
0.0111,1.4119,0.5825,3.4225
0.0115,1.4012,0.5932,3.3097
0.0119,1.3953,0.5932,3.2818
0.0123,1.3916,0.5852,3.3094
0.0128,1.3878,0.5728,3.3625
0.0132,1.3848,0.5573,3.4405
0.0137,1.3821,0.5401,3.5364
0.0141,1.3793,0.5208,3.6529
0.0146,1.3758,0.5001,3.7852
0.0152,1.3699,0.48,3.9101
0.0157,1.3609,0.4629,4.0016
0.0163,1.3501,0.4496,4.0539
0.0168,1.3379,0.4385,4.0823
0.0174,1.3236,0.4289,4.0844
0.018,1.3039,0.4234,4.0151
0.0187,1.2786,0.4292,3.8088
0.0193,1.2596,0.4493,3.531
0.02,1.2534,0.479,3.28
0.0207,1.2546,0.5097,3.088
0.0215,1.2558,0.5355,2.9452
0.0222,1.2546,0.5542,2.8399
0.023,1.2546,0.5687,2.768
0.0238,1.2639,0.587,2.7212
0.0247,1.2862,0.6158,2.6865
0.0255,1.3173,0.6538,2.6542
0.0264,1.3456,0.6911,2.6199
0.0274,1.3573,0.7064,2.608
0.0283,1.3476,0.6825,2.6608
0.0293,1.3237,0.6359,2.7556
0.0304,1.3098,0.6016,2.8517
0.0314,1.3194,0.6016,2.8935
0.0326,1.3393,0.6347,2.826
0.0337,1.3568,0.6866,2.6812
0.0349,1.3755,0.7507,2.5202
0.0361,1.3986,0.8032,2.4352
0.0374,1.4128,0.828,2.4108
0.0387,1.4039,0.8387,2.3502
0.0401,1.3777,0.8433,2.2507
0.0415,1.3604,0.8371,2.2107
0.043,1.3778,0.8364,2.2698
0.0445,1.4272,0.8514,2.3925
0.0461,1.4813,0.8669,2.5311
0.0477,1.5286,0.8869,2.6344
0.0494,1.5909,0.941,2.6899
0.0511,1.7036,1.0582,2.7426
0.0529,1.8486,1.2093,2.8258
0.0548,1.9508,1.3359,2.8488
0.0567,1.9999,1.4168,2.8231
0.0587,2.0314,1.4744,2.7988
0.0608,2.042,1.5026,2.775
0.0629,2.0088,1.4867,2.7142
0.0652,1.9464,1.4322,2.6451
0.0675,1.8959,1.3995,2.5684
0.0699,1.8662,1.4199,2.4527
0.0723,1.835,1.4477,2.3261
0.0749,1.7892,1.4264,2.2442
0.0775,1.7215,1.366,2.1696
0.0803,1.6239,1.29,2.044
0.0831,1.5111,1.2156,1.8785
0.086,1.4186,1.1545,1.7431
0.0891,1.3646,1.112,1.6746
0.0922,1.3373,1.0888,1.6425
0.0955,1.3151,1.0771,1.6056
0.0988,1.2864,1.0612,1.5594
0.1023,1.2555,1.0443,1.5094
0.106,1.2395,1.0343,1.4853
0.1097,1.2568,1.0455,1.5108
0.1136,1.3056,1.0909,1.5626
0.1176,1.3487,1.135,1.6027
0.1217,1.3409,1.1408,1.5762
0.126,1.2864,1.1183,1.4798
0.1305,1.2274,1.0677,1.411
0.1351,1.1848,1.0093,1.3908
0.1399,1.1558,0.9685,1.3794
0.1448,1.133,0.9502,1.351
0.1499,1.1125,0.9424,1.3132
0.1552,1.0951,0.9344,1.2833
0.1607,1.0896,0.9389,1.2645
0.1664,1.1058,0.9676,1.2636
0.1723,1.1408,1.0107,1.2876
0.1783,1.1798,1.0484,1.3277
0.1846,1.2137,1.0795,1.3646
0.1912,1.2527,1.1174,1.4043
0.1979,1.3082,1.1693,1.4636
0.2049,1.3713,1.2298,1.529
0.2121,1.4225,1.2876,1.5716
0.2196,1.455,1.3291,1.5928
0.2274,1.4779,1.3495,1.6185
0.2354,1.5032,1.3659,1.6544
0.2437,1.537,1.3922,1.6968
0.2524,1.5848,1.4158,1.774
0.2613,1.6576,1.4629,1.8783
0.2705,1.7553,1.5626,1.9717
0.2801,1.8479,1.6822,2.0299
0.2899,1.8973,1.7466,2.0611
0.3002,1.9045,1.7523,2.07
0.3108,1.9072,1.7464,2.0828
0.3218,1.9277,1.7485,2.1252
0.3331,1.9596,1.7668,2.1735
0.3449,1.9927,1.8011,2.2046
0.3571,2.0226,1.8451,2.2171
0.3697,2.0532,1.8894,2.2312
0.3827,2.098,1.9319,2.2784
0.3963,2.1632,1.9835,2.3593
0.4103,2.2299,2.0476,2.4284
0.4248,2.2697,2.0925,2.4618
0.4398,2.2703,2.0908,2.4653
0.4553,2.2291,2.0484,2.4257
0.4714,2.1433,1.9729,2.3285
0.488,2.031,1.8722,2.2032
0.5053,1.9312,1.7856,2.0887
0.5231,1.8684,1.7371,2.0096
0.5416,1.8311,1.7057,1.9656
0.5607,1.7924,1.6726,1.9208
0.5805,1.7415,1.63,1.8606
0.601,1.6858,1.5822,1.7961
0.6223,1.6394,1.5397,1.7456
0.6442,1.6199,1.5174,1.7294
0.667,1.643,1.5368,1.7565
0.6906,1.7114,1.5988,1.8318
0.7149,1.8078,1.687,1.9372
0.7402,1.9019,1.7851,2.0264
0.7663,1.9701,1.8636,2.0826
0.7934,2.0009,1.8894,2.119
0.8214,1.9887,1.8688,2.1162
0.8504,1.9464,1.8257,2.075
0.8805,1.9148,1.7957,2.0418
0.9116,1.9289,1.8109,2.0545
0.9438,1.9844,1.8659,2.1103
0.9771,2.0488,1.9205,2.1856
1.0116,2.0966,1.9451,2.26
1.0474,2.1151,1.9414,2.3044
1.0844,2.0937,1.9063,2.2995
1.1227,2.0312,1.8342,2.2494
1.1623,1.9374,1.7366,2.1614
1.2034,1.8323,1.6376,2.0503
1.2459,1.7475,1.5527,1.9667
1.2899,1.705,1.4888,1.9526
1.3355,1.6987,1.4493,1.9911
1.3826,1.7097,1.431,2.0428
1.4315,1.73,1.4282,2.0955
1.482,1.7623,1.4383,2.1594
1.5344,1.8097,1.4635,2.2377
1.5886,1.8654,1.5023,2.3164
1.6447,1.9099,1.5404,2.3681
1.7028,1.9262,1.5648,2.3712
1.7629,1.9173,1.5728,2.3372
1.8252,1.8969,1.5686,2.2939
1.8897,1.8733,1.5506,2.2632
1.9564,1.8469,1.5191,2.2454
2.0255,1.8148,1.4864,2.2158
2.097,1.7781,1.4607,2.1645
2.1711,1.7442,1.4423,2.1093
2.2478,1.7206,1.428,2.0732
2.3272,1.7058,1.4178,2.0524
2.4094,1.6916,1.4106,2.0285
2.4945,1.6711,1.4001,1.9946
2.5826,1.6426,1.3829,1.9511
2.6738,1.6055,1.3553,1.9018
2.7683,1.5582,1.3145,1.847
2.8661,1.5035,1.267,1.7842
2.9673,1.451,1.2238,1.7204
3.0721,1.4095,1.1905,1.6689
3.1806,1.3804,1.1631,1.6382
3.293,1.359,1.1337,1.629
3.4093,1.3405,1.1,1.6336
3.5297,1.3236,1.0682,1.6401
3.6544,1.3103,1.046,1.6415
3.7835,1.3021,1.035,1.638
3.9171,1.2991,1.03,1.6384
4.0555,1.3059,1.0308,1.6545
4.1987,1.3311,1.0453,1.6951
4.347,1.38,1.0788,1.7651
4.5006,1.451,1.1303,1.8628
4.6595,1.536,1.194,1.9759
4.8241,1.6227,1.2613,2.0878
4.9945,1.7044,1.3246,2.193
5.1709,1.7873,1.3927,2.2937
5.3536,1.9036,1.5044,2.4087
5.5427,2.1016,1.6939,2.6073
5.7384,2.3738,1.9251,2.9272
5.9411,2.6037,2.0943,3.2371
6.151,2.6472,2.0849,3.3612
6.3682,2.4899,1.9315,3.2096
6.5932,2.2558,1.7769,2.8637
6.8261,2.0836,1.7011,2.5521
7.0672,2.013,1.6666,2.4314
7.3168,1.9618,1.6077,2.3938
7.5753,1.8327,1.4807,2.2685
7.8428,1.6509,1.347,2.0235
8.1198,1.5128,1.2801,1.7879
8.4067,1.47,1.2807,1.6874
8.7036,1.4967,1.3158,1.7025
9.011,1.5433,1.3592,1.7523
9.3293,1.5854,1.3968,1.7994
9.6588,1.6217,1.4276,1.8423
10.0,1.6599,1.4565,1.8919
