# hvsrpy output version 0.5.2
# File Name (),NA
# Method (),geometric-mean
# Azimuth (),0
# Window Length (s),3600.0
# Total Number of Windows (),24
# Frequency Domain Window Rejection Performed (),True
# Lower frequency limit for peaks (Hz),0.006
# Upper frequency limit for peaks (Hz),9.9
# Number of Standard Deviations Used for Rejection () [n],2
# Number of Accepted Windows (),19
# Number of Rejected Windows (),5
# Distribution of f0 (),lognormal
# Median f0 (Hz) [LMf0],0.0107
# Lognormal standard deviation f0 () [SigmaLNf0],0.3696
# 68 % Confidence Interval f0 (Hz),0.0074,to,0.0155
# Median T0 (s) [LMT0],93.5436
# Lognormal standard deviation T0 () [SigmaLNT0],0.3696
# 68 % Confidence Interval T0 (s),64.6372,to,135.3775
# Median Curve Distribution (),lognormal
# Median Curve Peak Frequency (Hz) [f0mc],0.0063
# Median Curve Peak Amplitude (),2.125
# Frequency (Hz),Median Curve,1 STD Below Median Curve,1 STD Above Median Curve
0.005,1.7492,0.9929,3.0814
0.0052,1.8046,1.0429,3.1228
0.0054,1.8879,1.0873,3.278
0.0056,1.9517,1.1294,3.3728
0.0058,2.0208,1.1982,3.4082
0.0061,2.1038,1.2532,3.5319
0.0063,2.125,1.2757,3.5398
0.0065,2.092,1.2273,3.5661
0.0068,2.055,1.2202,3.4611
0.0071,1.9787,1.3005,3.0105
0.0073,1.928,1.3658,2.7216
0.0076,1.9596,1.3142,2.922
0.0079,1.9762,1.3122,2.976
0.0082,1.9491,1.3444,2.8259
0.0085,1.9513,1.3508,2.8189
0.0089,1.9718,1.4733,2.6389
0.0092,1.9329,1.478,2.5278
0.0096,1.8325,1.3643,2.4613
0.0099,1.761,1.3504,2.2965
0.0103,1.7562,1.3754,2.2423
0.0107,1.792,1.3669,2.3491
0.0112,1.8148,1.373,2.3986
0.0116,1.8181,1.3773,2.4
0.012,1.81,1.3131,2.4949
0.0125,1.819,1.2635,2.6187
0.013,1.8819,1.321,2.681
0.0135,1.9689,1.4595,2.6561
0.014,2.0525,1.5348,2.7449
0.0146,2.1063,1.4821,2.9933
0.0151,2.1114,1.4751,3.0223
0.0157,2.0605,1.5003,2.8298
0.0163,2.0076,1.4705,2.7409
0.017,2.0129,1.4661,2.7637
0.0176,2.0199,1.4293,2.8546
0.0183,1.9638,1.3368,2.8851
0.019,1.8967,1.2869,2.7954
0.0198,1.8766,1.3223,2.6633
0.0205,1.8595,1.3389,2.5825
0.0213,1.7902,1.265,2.5334
0.0222,1.7178,1.1903,2.4792
0.023,1.716,1.2114,2.4309
0.0239,1.801,1.3289,2.4408
0.0249,1.9267,1.4903,2.4911
0.0258,2.0029,1.5989,2.509
0.0268,1.9934,1.6357,2.4294
0.0279,1.9428,1.5633,2.4144
0.029,1.8889,1.4435,2.4716
0.0301,1.8286,1.3365,2.502
0.0313,1.7606,1.2499,2.4799
0.0325,1.7174,1.2009,2.4563
0.0338,1.7252,1.1955,2.4896
0.0351,1.7772,1.2522,2.5224
0.0364,1.8264,1.337,2.4949
0.0379,1.8312,1.3785,2.4325
0.0393,1.8274,1.3791,2.4216
0.0409,1.8614,1.4024,2.4707
0.0425,1.9065,1.4532,2.5011
0.0441,1.9246,1.5014,2.4671
0.0458,1.9309,1.5335,2.4314
0.0476,1.9428,1.5598,2.4197
0.0495,1.9507,1.5693,2.4249
0.0514,1.9451,1.5518,2.438
0.0534,1.9543,1.5669,2.4374
0.0555,2.0112,1.6434,2.4613
0.0576,2.0884,1.7191,2.537
0.0599,2.1203,1.7316,2.5963
0.0622,2.0878,1.6685,2.6126
0.0646,2.0363,1.6127,2.5711
0.0671,2.0172,1.6072,2.5316
0.0698,2.0477,1.6373,2.5611
0.0725,2.0967,1.6883,2.6039
0.0753,2.1004,1.7105,2.5791
0.0782,2.0295,1.6559,2.4874
0.0813,1.9195,1.5394,2.3936
0.0844,1.8088,1.4301,2.2878
0.0877,1.7084,1.3716,2.1277
0.0911,1.6275,1.3473,1.9661
0.0947,1.5725,1.35,1.8316
0.0984,1.5371,1.3592,1.7382
0.1022,1.5062,1.3452,1.6865
0.1062,1.4776,1.3324,1.6386
0.1103,1.4739,1.334,1.6284
0.1146,1.5012,1.3467,1.6734
0.1191,1.5189,1.3517,1.7067
0.1237,1.4684,1.3051,1.6523
0.1285,1.3544,1.2214,1.5018
0.1335,1.2438,1.1534,1.3413
0.1387,1.1735,1.1039,1.2474
0.1441,1.1344,1.0705,1.202
0.1497,1.1091,1.051,1.1704
0.1556,1.0888,1.0316,1.1492
0.1616,1.0743,1.013,1.1393
0.1679,1.0698,1.0123,1.1305
0.1744,1.0746,1.016,1.1365
0.1812,1.0876,1.0106,1.1704
0.1883,1.0994,1.0087,1.1983
0.1956,1.0959,1.0115,1.1874
0.2032,1.0897,1.0201,1.1641
0.2112,1.0997,1.0373,1.1659
0.2194,1.1175,1.0527,1.1862
0.2279,1.1261,1.0573,1.1994
0.2368,1.1348,1.0703,1.2033
0.246,1.1629,1.1072,1.2213
0.2556,1.1999,1.1485,1.2537
0.2655,1.2307,1.162,1.3035
0.2759,1.2777,1.2096,1.3495
0.2866,1.364,1.3106,1.4195
0.2978,1.4617,1.403,1.5228
0.3094,1.5234,1.4592,1.5905
0.3214,1.5464,1.4796,1.6162
0.3339,1.5572,1.4801,1.6382
0.3469,1.5751,1.4919,1.6629
0.3604,1.6076,1.5278,1.6916
0.3745,1.6497,1.5802,1.7222
0.3891,1.6756,1.6086,1.7454
0.4042,1.6723,1.6019,1.7459
0.4199,1.6732,1.6122,1.7364
0.4363,1.6996,1.6284,1.774
0.4533,1.7106,1.611,1.8164
0.4709,1.6722,1.5695,1.7816
0.4893,1.6187,1.5416,1.6997
0.5083,1.5893,1.5314,1.6494
0.5281,1.5823,1.5229,1.6441
0.5487,1.5857,1.524,1.6499
0.57,1.5978,1.5273,1.6716
0.5922,1.6166,1.5394,1.6976
0.6153,1.6359,1.5611,1.7141
0.6392,1.6535,1.5831,1.7272
0.6641,1.6652,1.5955,1.7379
0.69,1.6614,1.5952,1.7305
0.7168,1.6487,1.5909,1.7085
0.7447,1.6456,1.5907,1.7023
0.7737,1.6529,1.5935,1.7145
0.8039,1.6608,1.6063,1.7173
0.8352,1.675,1.6271,1.7242
0.8677,1.7025,1.6523,1.7542
0.9015,1.7337,1.6816,1.7874
0.9366,1.7588,1.7072,1.812
0.973,1.773,1.7237,1.8237
1.0109,1.7565,1.7106,1.8036
1.0503,1.697,1.6304,1.7663
1.0912,1.627,1.5374,1.7217
1.1336,1.5923,1.4938,1.6972
1.1778,1.6038,1.4971,1.7182
1.2236,1.6356,1.5116,1.7697
1.2713,1.649,1.5054,1.8062
1.3208,1.6383,1.4787,1.8151
1.3722,1.6296,1.4537,1.8269
1.4256,1.6207,1.4293,1.8377
1.4811,1.5862,1.383,1.8192
1.5388,1.5353,1.3205,1.785
1.5987,1.4983,1.2733,1.7632
1.661,1.4774,1.251,1.7447
1.7256,1.4501,1.2229,1.7196
1.7928,1.4163,1.1866,1.6905
1.8626,1.4046,1.1777,1.6752
1.9351,1.4241,1.1966,1.6948
2.0105,1.4456,1.2177,1.7161
2.0888,1.4415,1.2219,1.7005
2.1701,1.4184,1.2076,1.6661
2.2546,1.3909,1.1889,1.6272
2.3424,1.3616,1.1759,1.5767
2.4336,1.3319,1.1664,1.5209
2.5283,1.3012,1.1486,1.474
2.6267,1.265,1.1192,1.4299
2.729,1.223,1.1023,1.357
2.8353,1.1839,1.0821,1.2953
2.9456,1.1589,1.0512,1.2777
3.0603,1.1496,1.0416,1.2689
3.1795,1.1482,1.0483,1.2576
3.3033,1.1419,1.0562,1.2346
3.4319,1.1268,1.0539,1.2047
3.5655,1.1184,1.0463,1.1954
3.7043,1.1327,1.0472,1.2253
3.8486,1.1688,1.0539,1.2963
3.9984,1.2143,1.0707,1.3771
4.1541,1.2599,1.1046,1.437
4.3158,1.3056,1.151,1.481
4.4838,1.374,1.2115,1.5583
4.6584,1.51,1.3121,1.7377
4.8398,1.719,1.4575,2.0274
5.0282,1.9354,1.6205,2.3116
5.224,2.0545,1.7488,2.4136
5.4274,1.9619,1.7003,2.2639
5.6387,1.6595,1.426,1.9313
5.8582,1.3223,1.1479,1.5233
6.0863,1.0797,0.9778,1.1923
6.3233,0.9246,0.875,0.9771
6.5695,0.8491,0.7954,0.9065
6.8253,0.8627,0.7733,0.9624
7.091,0.9623,0.8585,1.0785
7.3671,1.0902,1.0415,1.1412
7.6539,1.1134,1.0685,1.1601
7.9519,1.0478,1.009,1.0882
8.2615,0.9963,0.9732,1.0199
8.5832,0.9838,0.9435,1.0259
8.9173,1.0138,0.9517,1.0799
9.2645,1.0739,1.0023,1.1506
9.6252,1.1345,1.0502,1.2254
10.0,1.1844,1.0773,1.3022
