# hvsrpy output version 0.5.2
# File Name (),NA
# Method (),geometric-mean
# Azimuth (),0
# Window Length (s),1200.0
# Total Number of Windows (),72
# Frequency Domain Window Rejection Performed (),True
# Lower frequency limit for peaks (Hz),0.1
# Upper frequency limit for peaks (Hz),5.0
# Number of Standard Deviations Used for Rejection () [n],2
# Number of Accepted Windows (),71
# Number of Rejected Windows (),1
# Distribution of f0 (),lognormal
# Median f0 (Hz) [LMf0],0.6508
# Lognormal standard deviation f0 () [SigmaLNf0],0.5916
# 68 % Confidence Interval f0 (Hz),0.3601,to,1.1759
# Median T0 (s) [LMT0],1.5367
# Lognormal standard deviation T0 () [SigmaLNT0],0.5916
# 68 % Confidence Interval T0 (s),0.8504,to,2.7767
# Median Curve Distribution (),lognormal
# Median Curve Peak Frequency (Hz) [f0mc],0.4302
# Median Curve Peak Amplitude (),2.3523
# Frequency (Hz),Median Curve,1 STD Below Median Curve,1 STD Above Median Curve
0.05,1.3524,0.8666,2.1107
0.0512,1.3362,0.8631,2.0685
0.0524,1.3322,0.8695,2.0411
0.0536,1.3483,0.8947,2.0319
0.0548,1.3827,0.9396,2.0349
0.0561,1.4271,0.9983,2.0403
0.0574,1.4751,1.0627,2.0476
0.0588,1.5253,1.1252,2.0679
0.0602,1.5799,1.1819,2.1118
0.0616,1.6403,1.2347,2.1792
0.063,1.7041,1.2855,2.2591
0.0645,1.7649,1.3305,2.341
0.066,1.8145,1.3606,2.4199
0.0675,1.8452,1.3709,2.4836
0.0691,1.8515,1.3641,2.5131
0.0707,1.8318,1.3427,2.499
0.0724,1.7858,1.3079,2.4383
0.0741,1.715,1.2609,2.3326
0.0758,1.6289,1.2033,2.205
0.0776,1.544,1.14,2.091
0.0794,1.4739,1.0833,2.0054
0.0813,1.422,1.0443,1.9361
0.0832,1.3843,1.0234,1.8726
0.0851,1.3559,1.0113,1.8178
0.0871,1.333,1.0006,1.7758
0.0892,1.3131,0.9901,1.7415
0.0913,1.293,0.9814,1.7036
0.0934,1.2698,0.9724,1.6582
0.0956,1.242,0.9572,1.6117
0.0978,1.2088,0.9342,1.5642
0.1001,1.1707,0.9089,1.5079
0.1025,1.1336,0.8889,1.4457
0.1049,1.1066,0.8811,1.3897
0.1073,1.0936,0.8908,1.3424
0.1098,1.0896,0.9147,1.298
0.1124,1.0867,0.9408,1.2551
0.115,1.0817,0.9565,1.2232
0.1177,1.0775,0.9578,1.212
0.1205,1.0777,0.9526,1.2191
0.1233,1.0822,0.9506,1.2321
0.1262,1.0875,0.9531,1.2407
0.1291,1.0888,0.9561,1.24
0.1322,1.084,0.9567,1.2283
0.1352,1.075,0.9552,1.2098
0.1384,1.067,0.9537,1.1937
0.1417,1.0653,0.9541,1.1894
0.145,1.0724,0.9596,1.1986
0.1484,1.0869,0.9737,1.2133
0.1518,1.1045,0.9969,1.2237
0.1554,1.1213,1.0224,1.2297
0.159,1.1368,1.0382,1.2447
0.1628,1.1531,1.0421,1.276
0.1666,1.1716,1.0456,1.3128
0.1705,1.1899,1.0544,1.3428
0.1745,1.2041,1.0665,1.3595
0.1785,1.2131,1.0808,1.3616
0.1827,1.2206,1.0995,1.355
0.187,1.233,1.1239,1.3526
0.1914,1.2549,1.1527,1.3662
0.1959,1.2866,1.1837,1.3984
0.2004,1.3245,1.2143,1.4447
0.2051,1.3637,1.2413,1.4982
0.2099,1.4009,1.2662,1.5499
0.2149,1.4348,1.294,1.5909
0.2199,1.4658,1.3271,1.619
0.225,1.4944,1.3627,1.6389
0.2303,1.5211,1.3949,1.6587
0.2357,1.5463,1.4216,1.682
0.2412,1.5713,1.4466,1.7067
0.2469,1.5977,1.4729,1.733
0.2526,1.6283,1.5014,1.7658
0.2585,1.6662,1.5338,1.8101
0.2646,1.7136,1.5749,1.8645
0.2708,1.7693,1.6277,1.9232
0.2771,1.8291,1.6861,1.9843
0.2836,1.8861,1.7401,2.0444
0.2903,1.9327,1.7845,2.0933
0.2971,1.9644,1.8137,2.1275
0.304,1.9826,1.8186,2.1613
0.3111,1.9932,1.8064,2.1993
0.3184,2.002,1.7994,2.2274
0.3259,2.0129,1.8106,2.2378
0.3335,2.0268,1.8357,2.2377
0.3413,2.0409,1.861,2.2381
0.3493,2.0507,1.8772,2.2401
0.3575,2.0548,1.8868,2.2376
0.3658,2.058,1.8951,2.2349
0.3744,2.0695,1.9065,2.2464
0.3832,2.0977,1.93,2.2801
0.3921,2.1459,1.9722,2.3349
0.4013,2.2097,2.0288,2.4067
0.4107,2.277,2.0871,2.4842
0.4203,2.3302,2.1334,2.5452
0.4302,2.3523,2.1562,2.5663
0.4402,2.335,2.1481,2.5381
0.4506,2.2837,2.1084,2.4736
0.4611,2.2151,2.0475,2.3965
0.4719,2.146,1.9854,2.3197
0.4829,2.0861,1.9365,2.2474
0.4942,2.0378,1.899,2.1867
0.5058,1.9997,1.8625,2.147
0.5177,1.9693,1.8256,2.1243
0.5298,1.9425,1.7951,2.102
0.5422,1.9143,1.7696,2.0708
0.5549,1.8804,1.7395,2.0328
0.5679,1.8405,1.6994,1.9932
0.5812,1.7981,1.6531,1.9559
0.5948,1.7585,1.6082,1.9228
0.6087,1.7251,1.5724,1.8926
0.6229,1.6997,1.5506,1.8632
0.6375,1.6845,1.5438,1.838
0.6525,1.683,1.5524,1.8246
0.6677,1.699,1.5772,1.8303
0.6834,1.733,1.6176,1.8567
0.6994,1.7799,1.6702,1.8969
0.7157,1.8304,1.7263,1.9407
0.7325,1.8756,1.7732,1.9839
0.7496,1.9123,1.8052,2.0257
0.7672,1.9425,1.8282,2.064
0.7851,1.969,1.8476,2.0983
0.8035,1.99,1.8595,2.1296
0.8223,1.9995,1.859,2.1508
0.8416,1.9937,1.849,2.1497
0.8613,1.9772,1.8381,2.1269
0.8815,1.9631,1.8336,2.1018
0.9021,1.9648,1.8384,2.0999
0.9232,1.9886,1.8553,2.1315
0.9448,2.0309,1.8881,2.1845
0.9669,2.0807,1.9319,2.241
0.9896,2.1255,1.9724,2.2906
1.0128,2.1568,1.9976,2.3287
1.0365,2.1702,2.0048,2.3492
1.0607,2.1641,1.9951,2.3475
1.0856,2.1391,1.9682,2.3248
1.111,2.0983,1.9252,2.287
1.137,2.0473,1.8734,2.2373
1.1636,1.9939,1.8225,2.1814
1.1908,1.9473,1.7765,2.1345
1.2187,1.9162,1.7383,2.1123
1.2473,1.9056,1.7151,2.1173
1.2765,1.9146,1.712,2.141
1.3063,1.9367,1.7293,2.1691
1.3369,1.9639,1.7617,2.1893
1.3682,1.9907,1.7984,2.2036
1.4003,2.0165,1.8258,2.2272
1.433,2.0442,1.8389,2.2724
1.4666,2.076,1.8456,2.3352
1.5009,2.1119,1.8568,2.402
1.5361,2.1484,1.8771,2.459
1.572,2.178,1.9007,2.4957
1.6088,2.1903,1.914,2.5064
1.6465,2.1773,1.9056,2.4879
1.685,2.1403,1.8762,2.4416
1.7245,2.0916,1.8386,2.3795
1.7649,2.0475,1.8066,2.3206
1.8062,2.0188,1.787,2.2806
1.8485,2.0062,1.7776,2.2642
1.8917,2.0034,1.7707,2.2667
1.936,2.001,1.7587,2.2766
1.9813,1.9899,1.7383,2.278
2.0277,1.9646,1.7079,2.2599
2.0752,1.9246,1.6664,2.2229
2.1238,1.8763,1.6169,2.1773
2.1735,1.8301,1.5684,2.1355
2.2244,1.794,1.5283,2.1059
2.2765,1.7682,1.4972,2.0883
2.3298,1.746,1.4712,2.072
2.3843,1.7183,1.4453,2.0429
2.4401,1.68,1.4146,1.9953
2.4973,1.6313,1.3753,1.935
2.5557,1.5761,1.3266,1.8725
2.6155,1.5189,1.271,1.8152
2.6768,1.4628,1.2129,1.7642
2.7395,1.4093,1.1568,1.7168
2.8036,1.3597,1.1071,1.6699
2.8692,1.3144,1.0655,1.6214
2.9364,1.2724,1.0305,1.571
3.0051,1.2314,0.998,1.5193
3.0755,1.1891,0.9633,1.4678
3.1475,1.1451,0.9251,1.4176
3.2212,1.1018,0.8856,1.3708
3.2966,1.0627,0.8495,1.3294
3.3738,1.0302,0.8207,1.2933
3.4528,1.0042,0.8006,1.2596
3.5336,0.9823,0.7879,1.2246
3.6163,0.9616,0.779,1.187
3.701,0.9403,0.7682,1.151
3.7876,0.9186,0.7515,1.1228
3.8763,0.8981,0.7295,1.1058
3.967,0.881,0.7064,1.0989
4.0599,0.8685,0.6867,1.0984
4.155,0.8606,0.6735,1.0997
4.2522,0.8571,0.6676,1.1006
4.3518,0.8583,0.6685,1.102
4.4537,0.8643,0.6756,1.1056
4.5579,0.8755,0.6892,1.1121
4.6647,0.8918,0.7091,1.1216
4.7739,0.9125,0.734,1.1344
4.8856,0.9355,0.76,1.1515
5.0,0.9582,0.7824,1.1735
