# hvsrpy output version 0.5.2
# File Name (),NA
# Method (),geometric-mean
# Azimuth (),0
# Window Length (s),1200.0
# Total Number of Windows (),72
# Frequency Domain Window Rejection Performed (),True
# Lower frequency limit for peaks (Hz),0.1
# Upper frequency limit for peaks (Hz),10.0
# Number of Standard Deviations Used for Rejection () [n],2
# Number of Accepted Windows (),52
# Number of Rejected Windows (),20
# Distribution of f0 (),lognormal
# Median f0 (Hz) [LMf0],6.2595
# Lognormal standard deviation f0 () [SigmaLNf0],0.0206
# 68 % Confidence Interval f0 (Hz),6.1318,to,6.3897
# Median T0 (s) [LMT0],0.1598
# Lognormal standard deviation T0 () [SigmaLNT0],0.0206
# 68 % Confidence Interval T0 (s),0.1565,to,0.1631
# Median Curve Distribution (),lognormal
# Median Curve Peak Frequency (Hz) [f0mc],6.3596
# Median Curve Peak Amplitude (),5.0182
# Frequency (Hz),Median Curve,1 STD Below Median Curve,1 STD Above Median Curve
0.05,0.9027,0.6345,1.2844
0.0513,0.8956,0.6325,1.2681
0.0527,0.8958,0.6386,1.2565
0.0542,0.9014,0.6392,1.2711
0.0556,0.9025,0.6254,1.3024
0.0571,0.8943,0.6076,1.3165
0.0587,0.8832,0.5984,1.3036
0.0602,0.8766,0.6012,1.2779
0.0619,0.8793,0.6146,1.258
0.0635,0.8948,0.6377,1.2555
0.0653,0.9208,0.666,1.2732
0.067,0.9481,0.6911,1.3006
0.0688,0.9655,0.7051,1.3222
0.0707,0.9697,0.7028,1.338
0.0726,0.9671,0.6935,1.3486
0.0745,0.9652,0.6917,1.3468
0.0766,0.9662,0.6997,1.3344
0.0786,0.9692,0.7109,1.3212
0.0807,0.9723,0.7191,1.3146
0.0829,0.9739,0.7224,1.3129
0.0852,0.9712,0.723,1.3047
0.0875,0.9618,0.7221,1.2812
0.0898,0.946,0.7174,1.2474
0.0922,0.9285,0.7094,1.2153
0.0947,0.9149,0.7046,1.188
0.0973,0.9082,0.7106,1.1609
0.0999,0.9089,0.7282,1.1344
0.1026,0.9168,0.7506,1.1199
0.1054,0.9318,0.7698,1.1278
0.1082,0.9505,0.7866,1.1484
0.1111,0.9677,0.8062,1.1615
0.1141,0.9829,0.8339,1.1585
0.1172,1.001,0.8684,1.1538
0.1204,1.0256,0.9005,1.1681
0.1236,1.0534,0.9281,1.1956
0.127,1.0726,0.9502,1.2107
0.1304,1.0723,0.9588,1.1993
0.1339,1.0527,0.9488,1.168
0.1375,1.0257,0.9273,1.1345
0.1412,1.0054,0.9078,1.1135
0.145,0.9978,0.8977,1.1091
0.149,0.9995,0.8906,1.1218
0.153,1.0041,0.8842,1.1402
0.1571,1.0064,0.8847,1.1449
0.1613,1.003,0.8912,1.1289
0.1657,0.992,0.8929,1.1022
0.1702,0.9742,0.8803,1.0781
0.1748,0.9535,0.8587,1.0587
0.1795,0.9362,0.8421,1.0407
0.1843,0.928,0.8382,1.0274
0.1893,0.9307,0.8431,1.0274
0.1944,0.9399,0.8498,1.0396
0.1996,0.9477,0.8527,1.0533
0.205,0.9495,0.8515,1.0587
0.2106,0.9483,0.852,1.0556
0.2162,0.9529,0.8598,1.0561
0.2221,0.9714,0.8777,1.0751
0.2281,1.0052,0.908,1.1128
0.2342,1.0455,0.9476,1.1536
0.2405,1.0763,0.982,1.1796
0.247,1.0837,0.9916,1.1843
0.2537,1.067,0.9748,1.1678
0.2605,1.0394,0.9498,1.1374
0.2676,1.016,0.929,1.1111
0.2748,1.0034,0.9169,1.0982
0.2822,1.0,0.9146,1.0934
0.2898,1.0016,0.9162,1.095
0.2976,1.0051,0.9164,1.1025
0.3057,1.0086,0.9187,1.1073
0.3139,1.0129,0.9272,1.1066
0.3224,1.0228,0.941,1.1118
0.3311,1.0424,0.9559,1.1368
0.34,1.0686,0.9716,1.1752
0.3492,1.0906,0.9884,1.2034
0.3586,1.0993,1.0015,1.2066
0.3683,1.0946,1.0063,1.1906
0.3782,1.0844,1.0036,1.1718
0.3884,1.076,0.9954,1.1631
0.3989,1.0705,0.9833,1.1654
0.4097,1.0651,0.9694,1.1704
0.4207,1.058,0.956,1.171
0.4321,1.0502,0.9453,1.1667
0.4437,1.0434,0.9373,1.1614
0.4557,1.0378,0.9312,1.1565
0.468,1.0315,0.928,1.1465
0.4806,1.0233,0.9263,1.1304
0.4936,1.0139,0.922,1.1149
0.5069,1.0063,0.9145,1.1072
0.5206,1.0042,0.9078,1.1108
0.5347,1.0102,0.9061,1.1262
0.5491,1.0224,0.9094,1.1495
0.5639,1.0342,0.9139,1.1704
0.5791,1.0381,0.9157,1.1768
0.5947,1.0324,0.9159,1.1636
0.6108,1.0233,0.9209,1.137
0.6273,1.0192,0.9351,1.1109
0.6442,1.0235,0.9516,1.1009
0.6616,1.0332,0.958,1.1143
0.6794,1.0436,0.9523,1.1438
0.6978,1.0518,0.9415,1.1751
0.7166,1.0563,0.9327,1.1964
0.7359,1.0572,0.9284,1.204
0.7558,1.0565,0.9291,1.2014
0.7762,1.0575,0.9349,1.196
0.7971,1.063,0.9455,1.1952
0.8186,1.0741,0.9602,1.2015
0.8407,1.0886,0.9764,1.2137
0.8634,1.1027,0.9897,1.2286
0.8867,1.1138,0.9984,1.2425
0.9106,1.1217,1.0023,1.2554
0.9352,1.1277,0.9999,1.2719
0.9604,1.1319,0.9913,1.2924
0.9863,1.1326,0.9793,1.3101
1.0129,1.129,0.9656,1.32
1.0403,1.1225,0.9506,1.3256
1.0683,1.1163,0.9353,1.3324
1.0972,1.1116,0.9213,1.3412
1.1268,1.1063,0.9076,1.3485
1.1572,1.0987,0.8927,1.3523
1.1884,1.09,0.8787,1.352
1.2205,1.084,0.8702,1.3503
1.2534,1.084,0.8672,1.355
1.2872,1.0903,0.8653,1.3738
1.3219,1.1014,0.8624,1.4066
1.3576,1.1149,0.8595,1.4461
1.3942,1.1276,0.8559,1.4855
1.4319,1.1369,0.8503,1.5202
1.4705,1.1421,0.8437,1.546
1.5102,1.1432,0.8381,1.5593
1.5509,1.1398,0.8339,1.5581
1.5928,1.1307,0.8298,1.5406
1.6358,1.1164,0.8244,1.5118
1.6799,1.1026,0.8186,1.485
1.7252,1.0986,0.8197,1.4722
1.7718,1.1132,0.837,1.4805
1.8196,1.1503,0.8716,1.5181
1.8687,1.2054,0.914,1.5898
1.9191,1.2659,0.9501,1.6865
1.9709,1.3153,0.9705,1.7826
2.0241,1.3422,0.9751,1.8474
2.0787,1.345,0.9703,1.8643
2.1348,1.3302,0.9631,1.8372
2.1924,1.3064,0.9569,1.7837
2.2515,1.2821,0.9519,1.7269
2.3123,1.2658,0.9476,1.6909
2.3747,1.2654,0.9496,1.6862
2.4387,1.2848,0.9677,1.7058
2.5045,1.3234,1.0053,1.7422
2.5721,1.3772,1.0573,1.7939
2.6415,1.4385,1.1145,1.8567
2.7128,1.4965,1.1662,1.9203
2.786,1.5424,1.2049,1.9744
2.8612,1.5744,1.2287,2.0172
2.9384,1.5977,1.2443,2.0514
3.0176,1.6195,1.262,2.0784
3.0991,1.6436,1.2877,2.0978
3.1827,1.6706,1.3211,2.1127
3.2686,1.7027,1.3616,2.1292
3.3567,1.7423,1.4109,2.1515
3.4473,1.7866,1.4648,2.1792
3.5403,1.8269,1.5161,2.2014
3.6359,1.8592,1.5645,2.2095
3.734,1.8955,1.6181,2.2203
3.8347,1.9576,1.6912,2.2659
3.9382,2.0609,1.7945,2.367
4.0444,2.1988,1.9154,2.524
4.1536,2.3406,2.0192,2.7131
4.2656,2.4515,2.0827,2.8855
4.3807,2.5225,2.1173,3.0054
4.4989,2.5801,2.1553,3.0887
4.6203,2.6577,2.2212,3.1799
4.745,2.765,2.3149,3.3027
4.873,2.885,2.4156,3.4455
5.0045,2.9985,2.5065,3.5872
5.1396,3.1145,2.5996,3.7314
5.2782,3.272,2.7371,3.9115
5.4207,3.5127,2.964,4.163
5.5669,3.8466,3.2953,4.4902
5.7171,4.2342,3.6955,4.8513
5.8714,4.5994,4.0873,5.1757
6.0298,4.8723,4.3906,5.4069
6.1925,5.0152,4.5604,5.5153
6.3596,5.0182,4.5894,5.4871
6.5312,4.8977,4.4979,5.333
6.7074,4.7023,4.3218,5.1163
6.8884,4.4961,4.1069,4.9221
7.0743,4.3204,3.9051,4.78
7.2651,4.1767,3.7348,4.6708
7.4612,4.0462,3.5755,4.579
7.6625,3.9205,3.4153,4.5003
7.8692,3.8055,3.2738,4.4234
8.0816,3.7045,3.1701,4.3288
8.2996,3.6071,3.1016,4.1949
8.5236,3.4954,3.0454,4.0118
8.7536,3.3552,2.9641,3.7979
8.9898,3.1858,2.8315,3.5845
9.2323,3.0032,2.6592,3.3918
9.4814,2.8298,2.4786,3.2307
9.7373,2.6808,2.3149,3.1045
10.0,2.5615,2.1796,3.0104
