# hvsrpy output version 0.5.2
# File Name (),NA
# Method (),geometric-mean
# Azimuth (),0
# Window Length (s),1200.0
# Total Number of Windows (),72
# Frequency Domain Window Rejection Performed (),True
# Lower frequency limit for peaks (Hz),0.1
# Upper frequency limit for peaks (Hz),5.0
# Number of Standard Deviations Used for Rejection () [n],2
# Number of Accepted Windows (),72
# Number of Rejected Windows (),0
# Distribution of f0 (),lognormal
# Median f0 (Hz) [LMf0],0.6481
# Lognormal standard deviation f0 () [SigmaLNf0],0.644
# 68 % Confidence Interval f0 (Hz),0.3404,to,1.234
# Median T0 (s) [LMT0],1.5431
# Lognormal standard deviation T0 () [SigmaLNT0],0.644
# 68 % Confidence Interval T0 (s),0.8104,to,2.9381
# Median Curve Distribution (),lognormal
# Median Curve Peak Frequency (Hz) [f0mc],0.4302
# Median Curve Peak Amplitude (),2.343
# Frequency (Hz),Median Curve,1 STD Below Median Curve,1 STD Above Median Curve
0.05,1.2358,0.8279,1.8446
0.0512,1.259,0.8871,1.7867
0.0524,1.2989,0.9461,1.7834
0.0536,1.3584,1.0018,1.842
0.0548,1.4328,1.0689,1.9207
0.0561,1.5112,1.1518,1.9827
0.0574,1.5799,1.2373,2.0174
0.0588,1.6296,1.3088,2.0289
0.0602,1.6601,1.351,2.0399
0.0616,1.6777,1.3604,2.0688
0.063,1.6866,1.3551,2.0993
0.0645,1.6851,1.3489,2.1051
0.066,1.6685,1.3379,2.0807
0.0675,1.6365,1.3143,2.0376
0.0691,1.5965,1.2835,1.9858
0.0707,1.5588,1.2586,1.9306
0.0724,1.5265,1.2422,1.876
0.0741,1.4908,1.224,1.8158
0.0758,1.4371,1.1861,1.7412
0.0776,1.3571,1.1125,1.6553
0.0794,1.2552,1.0049,1.568
0.0813,1.151,0.8942,1.4815
0.0832,1.0671,0.8175,1.3928
0.0851,1.0128,0.7844,1.3076
0.0871,0.9815,0.7794,1.2361
0.0892,0.9604,0.7792,1.1838
0.0913,0.9397,0.771,1.1453
0.0934,0.917,0.7577,1.1099
0.0956,0.8957,0.7475,1.0733
0.0978,0.8803,0.7438,1.0418
0.1001,0.8737,0.7455,1.0239
0.1025,0.8778,0.7544,1.0215
0.1049,0.8945,0.7751,1.0322
0.1073,0.9249,0.8081,1.0585
0.1098,0.9678,0.8467,1.1064
0.1124,1.0181,0.8848,1.1715
0.115,1.0669,0.9226,1.2337
0.1177,1.105,0.9587,1.2737
0.1205,1.1272,0.9853,1.2896
0.1233,1.1335,0.9945,1.2919
0.1262,1.127,0.9884,1.2852
0.1291,1.1117,0.9758,1.2665
0.1322,1.0919,0.964,1.2367
0.1352,1.0735,0.957,1.2042
0.1384,1.0624,0.9551,1.1818
0.1417,1.0613,0.9552,1.1793
0.145,1.0687,0.9573,1.193
0.1484,1.0808,0.964,1.2117
0.1518,1.0943,0.9743,1.2292
0.1554,1.1077,0.9853,1.2452
0.159,1.1211,0.9967,1.261
0.1628,1.1364,1.0116,1.2766
0.1666,1.1552,1.033,1.2918
0.1705,1.1765,1.0578,1.3086
0.1745,1.1963,1.0781,1.3275
0.1785,1.2091,1.0877,1.3441
0.1827,1.2135,1.091,1.3498
0.187,1.2141,1.0985,1.3419
0.1914,1.2193,1.1166,1.3315
0.1959,1.2356,1.1418,1.337
0.2004,1.2636,1.1663,1.369
0.2051,1.2989,1.1901,1.4177
0.2099,1.3356,1.2175,1.4651
0.2149,1.3701,1.2493,1.5026
0.2199,1.4035,1.2848,1.5331
0.225,1.4391,1.3228,1.5657
0.2303,1.4796,1.362,1.6074
0.2357,1.5244,1.3999,1.6599
0.2412,1.5705,1.4325,1.7218
0.2469,1.6157,1.4593,1.789
0.2526,1.6602,1.4863,1.8544
0.2585,1.7056,1.5212,1.9124
0.2646,1.7527,1.566,1.9617
0.2708,1.799,1.6146,2.0044
0.2771,1.8401,1.6567,2.0437
0.2836,1.8728,1.6848,2.0818
0.2903,1.898,1.7004,2.1185
0.2971,1.9197,1.7125,2.1519
0.304,1.9433,1.7306,2.1821
0.3111,1.9731,1.7612,2.2105
0.3184,2.0106,1.8073,2.2368
0.3259,2.0538,1.8634,2.2638
0.3335,2.0965,1.9138,2.2966
0.3413,2.1292,1.946,2.3296
0.3493,2.1442,1.9585,2.3474
0.3575,2.1411,1.9539,2.3463
0.3658,2.1291,1.939,2.3379
0.3744,2.122,1.9295,2.3338
0.3832,2.132,1.9411,2.3417
0.3921,2.1652,1.9793,2.3685
0.4013,2.2182,2.0381,2.4144
0.4107,2.2777,2.1029,2.4669
0.4203,2.3245,2.1542,2.5083
0.4302,2.343,2.174,2.5252
0.4402,2.3268,2.157,2.51
0.4506,2.2801,2.11,2.4638
0.4611,2.2126,2.0424,2.397
0.4719,2.1352,1.9629,2.3226
0.4829,2.0577,1.8817,2.2503
0.4942,1.9902,1.8124,2.1855
0.5058,1.9399,1.7665,2.1304
0.5177,1.9085,1.7478,2.084
0.5298,1.8908,1.7479,2.0454
0.5422,1.8776,1.7473,2.0176
0.5549,1.8601,1.7323,1.9974
0.5679,1.8341,1.7051,1.9728
0.5812,1.8004,1.6727,1.9378
0.5948,1.763,1.6363,1.8996
0.6087,1.7266,1.5938,1.8704
0.6229,1.6966,1.5505,1.8564
0.6375,1.6798,1.5183,1.8585
0.6525,1.6826,1.5072,1.8785
0.6677,1.7078,1.5215,1.9168
0.6834,1.7516,1.5589,1.9681
0.6994,1.8035,1.6106,2.0195
0.7157,1.8507,1.6649,2.0573
0.7325,1.8857,1.7108,2.0785
0.7496,1.9106,1.7442,2.0928
0.7672,1.9319,1.772,2.1061
0.7851,1.952,1.8011,2.1155
0.8035,1.9665,1.8298,2.1134
0.8223,1.969,1.8502,2.0954
0.8416,1.9583,1.8495,2.0736
0.8613,1.943,1.8296,2.0634
0.8815,1.9365,1.8166,2.0644
0.9021,1.9492,1.8276,2.0788
0.9232,1.9822,1.8562,2.1168
0.9448,2.0293,1.8902,2.1786
0.9669,2.0816,1.931,2.244
0.9896,2.1323,1.9826,2.2933
1.0128,2.1745,2.0328,2.3261
1.0365,2.1999,2.0577,2.3519
1.0607,2.2012,2.0428,2.3718
1.0856,2.1771,1.9872,2.3852
1.111,2.1341,1.9021,2.3944
1.137,2.0827,1.8116,2.3944
1.1636,2.0329,1.7384,2.3773
1.1908,1.992,1.6925,2.3446
1.2187,1.9654,1.6726,2.3095
1.2473,1.9553,1.6711,2.2878
1.2765,1.9591,1.6798,2.2848
1.3063,1.969,1.6951,2.2872
1.3369,1.9759,1.7198,2.27
1.3682,1.9752,1.7576,2.2197
1.4003,1.9703,1.8026,2.1537
1.433,1.9685,1.8359,2.1107
1.4666,1.9752,1.8449,2.1147
1.5009,1.9918,1.8461,2.1491
1.5361,2.0169,1.8554,2.1924
1.572,2.0456,1.8699,2.2379
1.6088,2.0691,1.8798,2.2775
1.6465,2.0762,1.8798,2.2932
1.685,2.0616,1.87,2.2729
1.7245,2.033,1.8466,2.2382
1.7649,2.0068,1.8139,2.2202
1.8062,1.9963,1.7911,2.2249
1.8485,2.0049,1.7884,2.2475
1.8917,2.027,1.8023,2.2797
1.936,2.0518,1.8209,2.3118
1.9813,2.0668,1.8273,2.3378
2.0277,2.0629,1.8086,2.3531
2.0752,2.0375,1.7636,2.3538
2.1238,1.9958,1.7006,2.3422
2.1735,1.948,1.6353,2.3205
2.2244,1.9029,1.5862,2.2828
2.2765,1.8632,1.5614,2.2233
2.3298,1.8274,1.5515,2.1523
2.3843,1.7937,1.5389,2.0907
2.4401,1.7624,1.5175,2.0468
2.4973,1.7347,1.4958,2.0118
2.5557,1.7096,1.4789,1.9763
2.6155,1.6824,1.4621,1.936
2.6768,1.6467,1.4364,1.8877
2.7395,1.5979,1.3947,1.8306
2.8036,1.5377,1.3374,1.768
2.8692,1.4731,1.2737,1.7036
2.9364,1.4115,1.2139,1.6412
3.0051,1.3566,1.1616,1.5843
3.0755,1.3069,1.1134,1.5339
3.1475,1.2589,1.0628,1.4911
3.2212,1.2123,1.0083,1.4575
3.2966,1.1706,0.9557,1.4338
3.3738,1.1377,0.9121,1.4191
3.4528,1.1141,0.8804,1.4099
3.5336,1.0975,0.8591,1.402
3.6163,1.0847,0.8449,1.3925
3.701,1.0739,0.835,1.3812
3.7876,1.0635,0.8255,1.3701
3.8763,1.0514,0.8126,1.3605
3.967,1.0364,0.7959,1.3496
4.0599,1.0196,0.7799,1.3331
4.155,1.0041,0.7687,1.3115
4.2522,0.9922,0.763,1.2902
4.3518,0.9848,0.7603,1.2754
4.4537,0.9817,0.7583,1.2709
4.5579,0.9823,0.7566,1.2754
4.6647,0.9859,0.7569,1.2843
4.7739,0.9918,0.761,1.2925
4.8856,0.9992,0.7695,1.2974
5.0,1.0075,0.7816,1.2987
