# hvsrpy output version 0.5.2
# File Name (),NA
# Method (),geometric-mean
# Azimuth (),0
# Window Length (s),1200.0
# Total Number of Windows (),72
# Frequency Domain Window Rejection Performed (),True
# Lower frequency limit for peaks (Hz),0.1
# Upper frequency limit for peaks (Hz),5.0
# Number of Standard Deviations Used for Rejection () [n],2
# Number of Accepted Windows (),41
# Number of Rejected Windows (),31
# Distribution of f0 (),lognormal
# Median f0 (Hz) [LMf0],1.2801
# Lognormal standard deviation f0 () [SigmaLNf0],0.0455
# 68 % Confidence Interval f0 (Hz),1.2232,to,1.3396
# Median T0 (s) [LMT0],0.7812
# Lognormal standard deviation T0 () [SigmaLNT0],0.0455
# 68 % Confidence Interval T0 (s),0.7465,to,0.8175
# Median Curve Distribution (),lognormal
# Median Curve Peak Frequency (Hz) [f0mc],1.2765
# Median Curve Peak Amplitude (),2.3736
# Frequency (Hz),Median Curve,1 STD Below Median Curve,1 STD Above Median Curve
0.05,2.2588,1.4934,3.4166
0.0512,2.4954,1.6808,3.7049
0.0524,2.7577,1.8672,4.0729
0.0536,2.9949,2.0307,4.4168
0.0548,3.1502,2.1493,4.6174
0.0561,3.1967,2.2066,4.631
0.0574,3.1518,2.2017,4.512
0.0588,3.0566,2.1488,4.3479
0.0602,2.9468,2.0757,4.1835
0.0616,2.8449,2.0113,4.0241
0.063,2.764,1.9726,3.8728
0.0645,2.712,1.9658,3.7415
0.066,2.691,1.9823,3.6532
0.0675,2.6919,2.0007,3.6218
0.0691,2.6915,2.0076,3.6086
0.0707,2.658,2.0005,3.5315
0.0724,2.5678,1.9733,3.3414
0.0741,2.4232,1.9135,3.0687
0.0758,2.2516,1.8161,2.7917
0.0776,2.0868,1.6948,2.5696
0.0794,1.95,1.5807,2.4055
0.0813,1.8443,1.4966,2.2727
0.0832,1.7639,1.4387,2.1626
0.0851,1.7,1.3884,2.0816
0.0871,1.6408,1.3318,2.0214
0.0892,1.5755,1.2687,1.9565
0.0913,1.5009,1.2062,1.8677
0.0934,1.4213,1.1495,1.7573
0.0956,1.3423,1.1003,1.6375
0.0978,1.2692,1.0589,1.5214
0.1001,1.2088,1.026,1.4242
0.1025,1.1665,1.0051,1.3538
0.1049,1.1417,0.9965,1.3079
0.1073,1.1274,0.9908,1.2827
0.1098,1.115,0.9802,1.2683
0.1124,1.1002,0.9666,1.2524
0.115,1.0848,0.9529,1.235
0.1177,1.0725,0.9419,1.2212
0.1205,1.0651,0.9382,1.2092
0.1233,1.0623,0.9444,1.195
0.1262,1.0641,0.9575,1.1825
0.1291,1.0718,0.9726,1.1812
0.1322,1.0874,0.9893,1.1952
0.1352,1.1116,1.0101,1.2234
0.1384,1.1438,1.0342,1.265
0.1417,1.1817,1.0595,1.318
0.145,1.2223,1.0856,1.3761
0.1484,1.263,1.1134,1.4328
0.1518,1.3025,1.1442,1.4828
0.1554,1.3395,1.1795,1.5214
0.159,1.372,1.2168,1.5469
0.1628,1.3956,1.247,1.5619
0.1666,1.4057,1.2604,1.5677
0.1705,1.3997,1.257,1.5587
0.1745,1.3797,1.2417,1.533
0.1785,1.352,1.2162,1.5028
0.1827,1.3243,1.1875,1.4769
0.187,1.3018,1.1675,1.4515
0.1914,1.2854,1.1579,1.4269
0.1959,1.2742,1.1534,1.4076
0.2004,1.2673,1.1524,1.3937
0.2051,1.2657,1.1574,1.384
0.2099,1.2706,1.1697,1.3803
0.2149,1.2822,1.1881,1.3837
0.2199,1.2974,1.2076,1.3939
0.225,1.3105,1.2207,1.407
0.2303,1.3153,1.223,1.4145
0.2357,1.3092,1.2164,1.4091
0.2412,1.2958,1.2057,1.3927
0.2469,1.2839,1.1969,1.3773
0.2526,1.2833,1.1974,1.3754
0.2585,1.3015,1.216,1.393
0.2646,1.3414,1.2569,1.4315
0.2708,1.4007,1.3158,1.491
0.2771,1.4724,1.384,1.5665
0.2836,1.547,1.454,1.6459
0.2903,1.6159,1.5197,1.7181
0.2971,1.6738,1.5726,1.7815
0.304,1.717,1.6064,1.8351
0.3111,1.7409,1.621,1.8696
0.3184,1.7428,1.6173,1.8781
0.3259,1.7259,1.5985,1.8635
0.3335,1.6993,1.5729,1.8359
0.3413,1.6736,1.5516,1.8051
0.3493,1.6556,1.5401,1.7797
0.3575,1.6476,1.5319,1.7721
0.3658,1.6489,1.5198,1.7889
0.3744,1.6569,1.511,1.8169
0.3832,1.6685,1.5148,1.8377
0.3921,1.6805,1.5312,1.8445
0.4013,1.6913,1.5525,1.8425
0.4107,1.7006,1.5711,1.8408
0.4203,1.7078,1.5819,1.8438
0.4302,1.7114,1.5838,1.8493
0.4402,1.7095,1.5803,1.8493
0.4506,1.7018,1.5755,1.8383
0.4611,1.69,1.569,1.8203
0.4719,1.6772,1.5586,1.8048
0.4829,1.6668,1.5469,1.7959
0.4942,1.6627,1.5424,1.7924
0.5058,1.6695,1.5534,1.7943
0.5177,1.6903,1.5832,1.8046
0.5298,1.7227,1.6245,1.8267
0.5422,1.7569,1.6608,1.8586
0.5549,1.7797,1.679,1.8864
0.5679,1.7826,1.6765,1.8953
0.5812,1.7694,1.6608,1.8851
0.5948,1.7544,1.6457,1.8704
0.6087,1.7524,1.6438,1.868
0.6229,1.7711,1.6608,1.8888
0.6375,1.8098,1.6948,1.9327
0.6525,1.8601,1.7387,1.99
0.6677,1.9081,1.78,2.0455
0.6834,1.9395,1.8048,2.0843
0.6994,1.9474,1.8088,2.0965
0.7157,1.9384,1.8012,2.086
0.7325,1.9288,1.7977,2.0696
0.7496,1.9322,1.81,2.0627
0.7672,1.9506,1.8385,2.0695
0.7851,1.9757,1.8721,2.0851
0.8035,1.9983,1.8967,2.1053
0.8223,2.0162,1.9096,2.1287
0.8416,2.0344,1.923,2.1522
0.8613,2.0577,1.9475,2.1742
0.8815,2.0857,1.9811,2.1958
0.9021,2.112,2.011,2.2182
0.9232,2.129,2.0248,2.2385
0.9448,2.131,2.0209,2.2471
0.9669,2.1178,2.0058,2.236
0.9896,2.0951,1.9868,2.2094
1.0128,2.0738,1.9708,2.1823
1.0365,2.0658,1.965,2.1718
1.0607,2.0784,1.9741,2.1883
1.0856,2.1114,1.998,2.2311
1.111,2.1571,2.0328,2.2891
1.137,2.2069,2.0745,2.3477
1.1636,2.2553,2.1209,2.3982
1.1908,2.3003,2.1687,2.44
1.2187,2.3391,2.2097,2.4759
1.2473,2.3652,2.2327,2.5056
1.2765,2.3736,2.232,2.5243
1.3063,2.3647,2.2127,2.5273
1.3369,2.3436,2.184,2.5147
1.3682,2.3134,2.1496,2.4897
1.4003,2.2738,2.1055,2.4555
1.433,2.2258,2.0476,2.4194
1.4666,2.1759,1.9806,2.3905
1.5009,2.133,1.9208,2.3687
1.5361,2.1006,1.8839,2.3423
1.572,2.074,1.8723,2.2975
1.6088,2.0443,1.8721,2.2324
1.6465,2.007,1.86,2.1655
1.685,1.9653,1.8232,2.1185
1.7245,1.9274,1.7782,2.0892
1.7649,1.9001,1.7465,2.0671
1.8062,1.8855,1.7316,2.0531
1.8485,1.8811,1.7249,2.0514
1.8917,1.8799,1.7168,2.0586
1.936,1.8749,1.7018,2.0656
1.9813,1.8626,1.6801,2.0649
2.0277,1.8447,1.6562,2.0548
2.0752,1.8247,1.634,2.0375
2.1238,1.8029,1.612,2.0164
2.1735,1.7768,1.583,1.9943
2.2244,1.7446,1.5437,1.9717
2.2765,1.7088,1.5003,1.9463
2.3298,1.6746,1.4617,1.9185
2.3843,1.6459,1.4315,1.8925
2.4401,1.6228,1.4073,1.8712
2.4973,1.6019,1.3844,1.8536
2.5557,1.5795,1.3586,1.8363
2.6155,1.5543,1.3289,1.8179
2.6768,1.5286,1.2983,1.7998
2.7395,1.5071,1.2717,1.7861
2.8036,1.4929,1.2521,1.78
2.8692,1.4853,1.2386,1.7812
2.9364,1.4802,1.2274,1.7851
3.0051,1.4725,1.2136,1.7867
3.0755,1.4593,1.1945,1.7829
3.1475,1.4414,1.1713,1.7738
3.2212,1.4221,1.1479,1.7617
3.2966,1.4052,1.1289,1.7491
3.3738,1.3942,1.1174,1.7394
3.4528,1.3905,1.1139,1.7359
3.5336,1.3938,1.116,1.7408
3.6163,1.4014,1.1195,1.7542
3.701,1.4101,1.1208,1.774
3.7876,1.4178,1.119,1.7962
3.8763,1.4241,1.1165,1.8165
3.967,1.4296,1.1154,1.8322
4.0599,1.4341,1.1153,1.8439
4.155,1.4368,1.1136,1.8538
4.2522,1.437,1.1085,1.8629
4.3518,1.4343,1.101,1.8685
4.4537,1.4287,1.0948,1.8645
4.5579,1.4208,1.0936,1.8459
4.6647,1.4117,1.0985,1.8143
4.7739,1.4038,1.1085,1.7778
4.8856,1.4002,1.1213,1.7484
5.0,1.4034,1.1335,1.7374
