# hvsrpy output version 0.5.2
# File Name (),NA
# Method (),geometric-mean
# Azimuth (),0
# Window Length (s),1200.0
# Total Number of Windows (),72
# Frequency Domain Window Rejection Performed (),True
# Lower frequency limit for peaks (Hz),0.1
# Upper frequency limit for peaks (Hz),5.0
# Number of Standard Deviations Used for Rejection () [n],2
# Number of Accepted Windows (),72
# Number of Rejected Windows (),0
# Distribution of f0 (),lognormal
# Median f0 (Hz) [LMf0],0.8503
# Lognormal standard deviation f0 () [SigmaLNf0],0.7038
# 68 % Confidence Interval f0 (Hz),0.4206,to,1.7188
# Median T0 (s) [LMT0],1.1761
# Lognormal standard deviation T0 () [SigmaLNT0],0.7038
# 68 % Confidence Interval T0 (s),0.5818,to,2.3773
# Median Curve Distribution (),lognormal
# Median Curve Peak Frequency (Hz) [f0mc],0.4302
# Median Curve Peak Amplitude (),2.2385
# Frequency (Hz),Median Curve,1 STD Below Median Curve,1 STD Above Median Curve
0.05,1.1705,0.7685,1.7828
0.0512,1.1538,0.7761,1.7154
0.0524,1.1505,0.7974,1.6599
0.0536,1.1643,0.832,1.6295
0.0548,1.1933,0.8803,1.6176
0.0561,1.2324,0.939,1.6176
0.0574,1.2779,0.9975,1.6372
0.0588,1.3285,1.0478,1.6844
0.0602,1.3844,1.0913,1.7563
0.0616,1.444,1.1328,1.8407
0.063,1.5039,1.1768,1.9219
0.0645,1.5621,1.2283,1.9866
0.066,1.6174,1.2866,2.0334
0.0675,1.6674,1.3431,2.07
0.0691,1.7054,1.3867,2.0973
0.0707,1.7199,1.4008,2.1117
0.0724,1.7012,1.3727,2.1082
0.0741,1.6496,1.3132,2.0721
0.0758,1.5771,1.2464,1.9954
0.0776,1.4993,1.1894,1.8898
0.0794,1.4273,1.1471,1.7761
0.0813,1.365,1.1141,1.6724
0.0832,1.3123,1.0831,1.59
0.0851,1.2697,1.0553,1.5276
0.0871,1.2395,1.0389,1.4789
0.0892,1.2231,1.0365,1.4433
0.0913,1.2177,1.0447,1.4194
0.0934,1.2161,1.0566,1.3997
0.0956,1.2109,1.0641,1.3779
0.0978,1.1987,1.0606,1.3547
0.1001,1.1823,1.0444,1.3383
0.1025,1.1673,1.0246,1.3298
0.1049,1.1567,1.0108,1.3237
0.1073,1.1495,1.0012,1.3197
0.1098,1.1432,0.9926,1.3167
0.1124,1.1361,0.9857,1.3094
0.115,1.1267,0.9775,1.2988
0.1177,1.1148,0.9624,1.2914
0.1205,1.1026,0.9423,1.2903
0.1233,1.0938,0.925,1.2933
0.1262,1.0904,0.9174,1.2959
0.1291,1.0914,0.9205,1.294
0.1322,1.0931,0.9291,1.286
0.1352,1.0916,0.9366,1.2724
0.1384,1.0868,0.942,1.2539
0.1417,1.0823,0.9485,1.2348
0.145,1.0811,0.9564,1.2221
0.1484,1.0826,0.9626,1.2177
0.1518,1.0848,0.9669,1.2171
0.1554,1.0874,0.9721,1.2164
0.159,1.092,0.9798,1.2171
0.1628,1.1004,0.9906,1.2225
0.1666,1.1127,1.0049,1.2321
0.1705,1.1268,1.0216,1.2427
0.1745,1.1396,1.037,1.2524
0.1785,1.1504,1.0492,1.2613
0.1827,1.1626,1.0619,1.2729
0.187,1.1828,1.0791,1.2966
0.1914,1.2159,1.1036,1.3396
0.1959,1.2611,1.1386,1.3969
0.2004,1.3127,1.1841,1.4554
0.2051,1.3633,1.2338,1.5063
0.2099,1.4077,1.2786,1.5498
0.2149,1.4442,1.3119,1.5898
0.2199,1.473,1.3343,1.6261
0.225,1.495,1.3506,1.6547
0.2303,1.5114,1.3648,1.6737
0.2357,1.5247,1.3783,1.6867
0.2412,1.5388,1.3931,1.6998
0.2469,1.5587,1.4136,1.7187
0.2526,1.5892,1.4427,1.7506
0.2585,1.6339,1.4799,1.8038
0.2646,1.693,1.5261,1.8781
0.2708,1.7612,1.5834,1.9589
0.2771,1.8267,1.6471,2.026
0.2836,1.8754,1.7021,2.0663
0.2903,1.8977,1.732,2.0793
0.2971,1.896,1.7353,2.0716
0.304,1.8833,1.7265,2.0543
0.3111,1.8757,1.7218,2.0434
0.3184,1.884,1.7312,2.0504
0.3259,1.9096,1.7571,2.0752
0.3335,1.946,1.7938,2.111
0.3413,1.9834,1.832,2.1473
0.3493,2.0137,1.8642,2.1751
0.3575,2.0338,1.8838,2.1957
0.3658,2.0469,1.8921,2.2144
0.3744,2.0599,1.9011,2.2319
0.3832,2.08,1.9212,2.2519
0.3921,2.111,1.9521,2.2828
0.4013,2.1508,1.9882,2.3268
0.4107,2.1916,2.0216,2.3758
0.4203,2.2232,2.0446,2.4173
0.4302,2.2385,2.0554,2.4379
0.4402,2.2362,2.058,2.4298
0.4506,2.2184,2.0518,2.3985
0.4611,2.1862,2.031,2.3532
0.4719,2.1383,1.9953,2.2917
0.4829,2.0749,1.9483,2.2096
0.4942,2.0012,1.8918,2.117
0.5058,1.9278,1.8289,2.032
0.5177,1.8645,1.771,1.9629
0.5298,1.816,1.728,1.9084
0.5422,1.7801,1.6977,1.8666
0.5549,1.752,1.6713,1.8366
0.5679,1.7278,1.6424,1.8176
0.5812,1.7062,1.6116,1.8063
0.5948,1.6874,1.5836,1.7981
0.6087,1.6717,1.5613,1.7899
0.6229,1.6596,1.5463,1.7813
0.6375,1.6541,1.543,1.7732
0.6525,1.6609,1.557,1.7717
0.6677,1.6868,1.5905,1.7889
0.6834,1.7353,1.6401,1.836
0.6994,1.8029,1.7023,1.9095
0.7157,1.8785,1.7714,1.992
0.7325,1.9471,1.8363,2.0646
0.7496,1.9971,1.8861,2.1147
0.7672,2.0248,1.9175,2.1382
0.7851,2.0335,1.9315,2.1407
0.8035,2.0276,1.9293,2.131
0.8223,2.0106,1.9142,2.1118
0.8416,1.986,1.8935,2.0831
0.8613,1.9617,1.8745,2.053
0.8815,1.9488,1.8639,2.0376
0.9021,1.9573,1.8695,2.0493
0.9232,1.99,1.8967,2.0879
0.9448,2.0405,1.943,2.1428
0.9669,2.096,1.9973,2.1995
0.9896,2.144,2.0458,2.2469
1.0128,2.1774,2.0782,2.2814
1.0365,2.1944,2.0917,2.3023
1.0607,2.1955,2.0891,2.3073
1.0856,2.1815,2.0739,2.2946
1.111,2.1533,2.0464,2.2657
1.137,2.1123,2.0055,2.2248
1.1636,2.0619,1.9533,2.1766
1.1908,2.0085,1.8985,2.1248
1.2187,1.9609,1.8526,2.0755
1.2473,1.9277,1.8242,2.0371
1.2765,1.9127,1.8143,2.0164
1.3063,1.9133,1.8177,2.0138
1.3369,1.9236,1.8283,2.0238
1.3682,1.9393,1.8434,2.0402
1.4003,1.9599,1.8623,2.0627
1.433,1.9857,1.882,2.0952
1.4666,2.0152,1.9003,2.1369
1.5009,2.0456,1.9174,2.1824
1.5361,2.0761,1.9317,2.2313
1.572,2.1064,1.9425,2.2841
1.6088,2.1334,1.9512,2.3327
1.6465,2.1497,1.9556,2.3631
1.685,2.1479,1.9491,2.3671
1.7245,2.1291,1.9295,2.3494
1.7649,2.1045,1.9059,2.3239
1.8062,2.0882,1.892,2.3049
1.8485,2.088,1.8929,2.3031
1.8917,2.1009,1.9007,2.3222
1.936,2.1154,1.9027,2.3519
1.9813,2.1184,1.892,2.372
2.0277,2.1024,1.8668,2.3678
2.0752,2.0684,1.8286,2.3395
2.1238,2.0234,1.78,2.3002
2.1735,1.9773,1.7248,2.2667
2.2244,1.9379,1.6715,2.2467
2.2765,1.9075,1.628,2.2349
2.3298,1.8818,1.5936,2.2221
2.3843,1.8536,1.5601,2.2023
2.4401,1.8178,1.5223,2.1705
2.4973,1.7742,1.4833,2.1221
2.5557,1.7266,1.4491,2.0573
2.6155,1.6794,1.4208,1.985
2.6768,1.6343,1.3939,1.9162
2.7395,1.5904,1.3629,1.8559
2.8036,1.5456,1.3254,1.8022
2.8692,1.4981,1.2824,1.7501
2.9364,1.4474,1.2354,1.6958
3.0051,1.3933,1.1857,1.6373
3.0755,1.3365,1.1346,1.5744
3.1475,1.2791,1.0844,1.5088
3.2212,1.2252,1.0381,1.446
3.2966,1.1793,0.998,1.3934
3.3738,1.1438,0.9654,1.3552
3.4528,1.1178,0.9398,1.3297
3.5336,1.0969,0.9178,1.3109
3.6163,1.0757,0.8946,1.2934
3.701,1.0508,0.8665,1.2742
3.7876,1.0222,0.8342,1.2524
3.8763,0.9924,0.8021,1.2279
3.967,0.9647,0.7748,1.2012
4.0599,0.9418,0.7541,1.1761
4.155,0.9257,0.7398,1.1582
4.2522,0.9178,0.7319,1.151
4.3518,0.9185,0.7319,1.1527
4.4537,0.9266,0.7408,1.159
4.5579,0.9401,0.7572,1.1671
4.6647,0.9567,0.7774,1.1775
4.7739,0.9748,0.7976,1.1914
4.8856,0.993,0.8157,1.2088
5.0,1.0108,0.8326,1.2272
