# hvsrpy output version 0.5.2
# File Name (),NA
# Method (),geometric-mean
# Azimuth (),0
# Window Length (s),1800.0
# Total Number of Windows (),48
# Frequency Domain Window Rejection Performed (),True
# Lower frequency limit for peaks (Hz),0.006
# Upper frequency limit for peaks (Hz),9.9
# Number of Standard Deviations Used for Rejection () [n],2
# Number of Accepted Windows (),39
# Number of Rejected Windows (),9
# Distribution of f0 (),lognormal
# Median f0 (Hz) [LMf0],0.0094
# Lognormal standard deviation f0 () [SigmaLNf0],0.2797
# 68 % Confidence Interval f0 (Hz),0.0071,to,0.0124
# Median T0 (s) [LMT0],106.86
# Lognormal standard deviation T0 () [SigmaLNT0],0.2797
# 68 % Confidence Interval T0 (s),80.7889,to,141.3445
# Median Curve Distribution (),lognormal
# Median Curve Peak Frequency (Hz) [f0mc],0.0082
# Median Curve Peak Amplitude (),9.2948
# Frequency (Hz),Median Curve,1 STD Below Median Curve,1 STD Above Median Curve
0.005,5.0878,2.2011,11.7605
0.0052,5.2707,2.2259,12.4805
0.0054,5.5287,2.1827,14.004
0.0056,6.0037,2.1926,16.4389
0.0058,6.7517,2.3122,19.7148
0.0061,7.6777,2.5041,23.5401
0.0063,8.5931,2.7488,26.8629
0.0065,9.1768,2.9564,28.485
0.0068,8.8856,3.1307,25.2195
0.0071,8.4759,3.1796,22.594
0.0073,8.4757,3.2587,22.0446
0.0076,8.7933,3.3773,22.8951
0.0079,9.1057,3.4427,24.0841
0.0082,9.2948,3.5143,24.5836
0.0085,9.2893,3.4403,25.0825
0.0089,8.9985,3.2364,25.0194
0.0092,8.776,3.17,24.2954
0.0096,8.7794,3.3065,23.3106
0.0099,8.8001,3.4463,22.4712
0.0103,8.7157,3.5057,21.6687
0.0107,8.4809,3.4804,20.6654
0.0112,8.3134,3.4413,20.0828
0.0116,8.32,3.416,20.2637
0.012,8.519,3.4756,20.8807
0.0125,8.7794,3.5907,21.4661
0.013,8.7382,3.5414,21.5609
0.0135,8.5501,3.4047,21.4718
0.014,8.4188,3.3254,21.3136
0.0146,8.2569,3.3559,20.3155
0.0151,8.0726,3.4488,18.8957
0.0157,8.0655,3.6589,17.7788
0.0163,8.3717,3.9152,17.9008
0.017,8.6668,3.9293,19.1165
0.0176,8.5527,3.7004,19.7677
0.0183,8.2185,3.496,19.3205
0.019,8.1018,3.4517,19.0162
0.0198,8.0533,3.4756,18.66
0.0205,7.84,3.517,17.4764
0.0213,7.6117,3.57,16.2293
0.0222,7.5678,3.6412,15.7287
0.023,7.6645,3.6996,15.8787
0.0239,7.736,3.7085,16.1375
0.0249,7.6161,3.6435,15.9199
0.0258,7.3057,3.5535,15.0201
0.0268,7.052,3.5134,14.1545
0.0279,7.0324,3.5111,14.0853
0.029,7.1918,3.5461,14.5853
0.0301,7.3819,3.6091,15.0987
0.0313,7.4892,3.72,15.0774
0.0325,7.5065,3.773,14.9345
0.0338,7.4633,3.6715,15.1712
0.0351,7.3859,3.5397,15.4112
0.0364,7.2269,3.4939,14.9485
0.0379,7.0013,3.485,14.0656
0.0393,6.8351,3.4725,13.4535
0.0409,6.7362,3.4258,13.2454
0.0425,6.6147,3.3124,13.2089
0.0441,6.4636,3.1767,13.1515
0.0458,6.3628,3.1161,12.9923
0.0476,6.2722,3.1199,12.6093
0.0495,6.0444,3.0963,11.7995
0.0514,5.6385,2.9669,10.7157
0.0534,5.0764,2.7007,9.5421
0.0555,4.4338,2.3662,8.3079
0.0576,3.8312,2.1155,6.9384
0.0599,3.3818,2.0016,5.7137
0.0622,3.1099,1.9684,4.9134
0.0646,2.9432,1.9716,4.3938
0.0671,2.8069,2.0011,3.9373
0.0698,2.6584,2.0124,3.5118
0.0725,2.4901,1.9543,3.1728
0.0753,2.2944,1.8297,2.8772
0.0782,2.0642,1.6743,2.5449
0.0813,1.8463,1.5284,2.2303
0.0844,1.6933,1.41,2.0335
0.0877,1.5948,1.321,1.9254
0.0911,1.503,1.2377,1.8252
0.0947,1.382,1.1413,1.6734
0.0984,1.2316,1.0315,1.4705
0.1022,1.1018,0.9336,1.3004
0.1062,1.0439,0.8944,1.2184
0.1103,1.0491,0.9139,1.2043
0.1146,1.0713,0.9509,1.207
0.1191,1.0803,0.9722,1.2005
0.1237,1.0803,0.9641,1.2107
0.1285,1.0863,0.9627,1.2256
0.1335,1.1099,0.9894,1.2451
0.1387,1.1551,1.0439,1.2781
0.1441,1.2145,1.1028,1.3374
0.1497,1.2781,1.1595,1.4088
0.1556,1.3351,1.217,1.4648
0.1616,1.3702,1.2509,1.5008
0.1679,1.3685,1.2397,1.5107
0.1744,1.3311,1.2031,1.4726
0.1812,1.2784,1.1681,1.399
0.1883,1.234,1.1414,1.3342
0.1956,1.2151,1.1301,1.3064
0.2032,1.2259,1.1377,1.321
0.2112,1.2472,1.1526,1.3495
0.2194,1.2549,1.1661,1.3504
0.2279,1.2526,1.1633,1.3487
0.2368,1.2564,1.1716,1.3475
0.246,1.2772,1.1963,1.3636
0.2556,1.3218,1.2322,1.4179
0.2655,1.3983,1.3081,1.4947
0.2759,1.5078,1.4215,1.5993
0.2866,1.6274,1.5308,1.7301
0.2978,1.7218,1.6036,1.8486
0.3094,1.7744,1.6387,1.9213
0.3214,1.7904,1.6601,1.9309
0.3339,1.7719,1.6637,1.8871
0.3469,1.7233,1.6284,1.8237
0.3604,1.6768,1.58,1.7796
0.3745,1.6684,1.5718,1.7709
0.3891,1.6932,1.6059,1.7853
0.4042,1.7147,1.6323,1.8013
0.4199,1.7172,1.6286,1.8106
0.4363,1.7136,1.6192,1.8134
0.4533,1.7103,1.6127,1.8138
0.4709,1.7039,1.61,1.8032
0.4893,1.699,1.6148,1.7875
0.5083,1.7118,1.6248,1.8034
0.5281,1.7487,1.652,1.851
0.5487,1.7931,1.6988,1.8926
0.57,1.8266,1.7441,1.9129
0.5922,1.8547,1.7809,1.9317
0.6153,1.8971,1.8174,1.9803
0.6392,1.9602,1.8707,2.0539
0.6641,2.0261,1.9379,2.1184
0.69,2.0592,1.9763,2.1456
0.7168,2.0536,1.9661,2.1451
0.7447,2.053,1.9709,2.1386
0.7737,2.0794,2.0143,2.1467
0.8039,2.1097,2.0369,2.1852
0.8352,2.138,2.0422,2.2384
0.8677,2.1864,2.0829,2.295
0.9015,2.2558,2.1513,2.3653
0.9366,2.3115,2.2039,2.4244
0.973,2.3119,2.2062,2.4227
1.0109,2.2651,2.1606,2.3747
1.0503,2.231,2.1169,2.3512
1.0912,2.2459,2.1196,2.3797
1.1336,2.2862,2.1518,2.429
1.1778,2.32,2.1824,2.4663
1.2236,2.345,2.1989,2.5007
1.2713,2.356,2.1907,2.5338
1.3208,2.3399,2.1574,2.5379
1.3722,2.304,2.0944,2.5345
1.4256,2.2629,1.9955,2.5661
1.4811,2.2213,1.8855,2.617
1.5388,2.1763,1.796,2.637
1.5987,2.115,1.7265,2.5909
1.661,2.0322,1.6637,2.4822
1.7256,1.9482,1.6049,2.3648
1.7928,1.887,1.5536,2.2918
1.8626,1.8489,1.5063,2.2694
1.9351,1.8136,1.4555,2.2598
2.0105,1.7749,1.4133,2.229
2.0888,1.7481,1.3941,2.192
2.1701,1.7311,1.3845,2.1644
2.2546,1.6992,1.359,2.1246
2.3424,1.6431,1.3128,2.0565
2.4336,1.5775,1.2543,1.984
2.5283,1.5175,1.1903,1.9347
2.6267,1.4692,1.1321,1.9066
2.729,1.4358,1.0965,1.88
2.8353,1.4178,1.0854,1.8521
2.9456,1.4034,1.0823,1.8198
3.0603,1.3715,1.0719,1.755
3.1795,1.3164,1.0423,1.6625
3.3033,1.2546,1.0011,1.5723
3.4319,1.2044,0.9677,1.499
3.5655,1.1722,0.9489,1.448
3.7043,1.1545,0.9401,1.4178
3.8486,1.1446,0.9349,1.4013
3.9984,1.1374,0.9266,1.3962
4.1541,1.134,0.9172,1.402
4.3158,1.1397,0.9157,1.4185
4.4838,1.1553,0.9273,1.4392
4.6584,1.1728,0.9483,1.4506
4.8398,1.1858,0.9715,1.4475
5.0282,1.1957,0.9926,1.4402
5.224,1.2049,1.0135,1.4326
5.4274,1.2127,1.0335,1.4228
5.6387,1.2172,1.0483,1.4133
5.8582,1.2207,1.0564,1.4105
6.0863,1.225,1.0599,1.4158
6.3233,1.2302,1.0619,1.425
6.5695,1.238,1.0664,1.4372
6.8253,1.2516,1.0734,1.4593
7.091,1.2724,1.0817,1.4968
7.3671,1.2982,1.0949,1.5392
7.6539,1.3198,1.1116,1.5671
7.9519,1.327,1.1251,1.5652
8.2615,1.3182,1.1281,1.5402
8.5832,1.2995,1.1181,1.5103
8.9173,1.2777,1.1015,1.4821
9.2645,1.2587,1.0854,1.4597
9.6252,1.2463,1.0729,1.4478
10.0,1.2401,1.0624,1.4475
