# hvsrpy output version 0.5.2
# File Name (),NA
# Method (),geometric-mean
# Azimuth (),0
# Window Length (s),1200.0
# Total Number of Windows (),72
# Frequency Domain Window Rejection Performed (),True
# Lower frequency limit for peaks (Hz),0.1
# Upper frequency limit for peaks (Hz),5.0
# Number of Standard Deviations Used for Rejection () [n],2
# Number of Accepted Windows (),69
# Number of Rejected Windows (),3
# Distribution of f0 (),lognormal
# Median f0 (Hz) [LMf0],0.9505
# Lognormal standard deviation f0 () [SigmaLNf0],0.3314
# 68 % Confidence Interval f0 (Hz),0.6824,to,1.324
# Median T0 (s) [LMT0],1.052
# Lognormal standard deviation T0 () [SigmaLNT0],0.3314
# 68 % Confidence Interval T0 (s),0.7553,to,1.4654
# Median Curve Distribution (),lognormal
# Median Curve Peak Frequency (Hz) [f0mc],0.9232
# Median Curve Peak Amplitude (),2.1253
# Frequency (Hz),Median Curve,1 STD Below Median Curve,1 STD Above Median Curve
0.05,4.1511,2.0692,8.3276
0.0512,4.2241,2.1325,8.3671
0.0524,4.2525,2.1924,8.2483
0.0536,4.2561,2.2326,8.1133
0.0548,4.2483,2.2419,8.0504
0.0561,4.2295,2.2274,8.0314
0.0574,4.1989,2.2061,7.992
0.0588,4.1632,2.1867,7.9262
0.0602,4.1226,2.17,7.8322
0.0616,4.0679,2.1584,7.6667
0.063,4.0008,2.1537,7.4319
0.0645,3.9393,2.1482,7.2238
0.066,3.8971,2.1305,7.1288
0.0675,3.8661,2.0976,7.1257
0.0691,3.8218,2.0531,7.1141
0.0707,3.739,1.9974,6.9992
0.0724,3.6032,1.9283,6.733
0.0741,3.4193,1.8488,6.3237
0.0758,3.2094,1.7677,5.8271
0.0776,2.9989,1.6917,5.3162
0.0794,2.8041,1.6219,4.8477
0.0813,2.6295,1.5565,4.4421
0.0832,2.4737,1.4941,4.0956
0.0851,2.3334,1.4356,3.7927
0.0871,2.1987,1.3782,3.5077
0.0892,2.0526,1.3121,3.211
0.0913,1.8842,1.2289,2.8888
0.0934,1.7039,1.1339,2.5605
0.0956,1.5391,1.0451,2.2665
0.0978,1.4139,0.9808,2.0384
0.1001,1.336,0.949,1.8809
0.1025,1.2955,0.9445,1.777
0.1049,1.2746,0.9537,1.7035
0.1073,1.2579,0.9638,1.6418
0.1098,1.2376,0.9686,1.5812
0.1124,1.2131,0.9691,1.5184
0.115,1.1887,0.9686,1.4588
0.1177,1.1693,0.9676,1.413
0.1205,1.1562,0.9646,1.3858
0.1233,1.1478,0.9608,1.3711
0.1262,1.1415,0.9597,1.3578
0.1291,1.1372,0.9644,1.341
0.1322,1.1376,0.9744,1.3281
0.1352,1.1461,0.9877,1.3299
0.1384,1.1642,1.0083,1.3443
0.1417,1.1903,1.0404,1.3618
0.145,1.2207,1.0809,1.3787
0.1484,1.2524,1.1215,1.3986
0.1518,1.283,1.1547,1.4255
0.1554,1.3104,1.178,1.4577
0.159,1.3321,1.1931,1.4873
0.1628,1.3445,1.202,1.5039
0.1666,1.3459,1.205,1.5032
0.1705,1.3382,1.2016,1.4904
0.1745,1.3267,1.1925,1.4759
0.1785,1.316,1.1819,1.4653
0.1827,1.3072,1.1742,1.4553
0.187,1.2979,1.1695,1.4403
0.1914,1.2858,1.1638,1.4207
0.1959,1.2716,1.1525,1.4029
0.2004,1.2576,1.1367,1.3915
0.2051,1.2471,1.1232,1.3846
0.2099,1.2416,1.1173,1.3798
0.2149,1.2416,1.1201,1.3762
0.2199,1.2461,1.1292,1.3751
0.225,1.2539,1.1404,1.3787
0.2303,1.2638,1.1511,1.3876
0.2357,1.2752,1.161,1.4007
0.2412,1.2883,1.173,1.415
0.2469,1.3046,1.1916,1.4284
0.2526,1.3261,1.2168,1.4453
0.2585,1.3545,1.2449,1.4737
0.2646,1.3894,1.2748,1.5143
0.2708,1.4283,1.3081,1.5596
0.2771,1.4678,1.3438,1.6033
0.2836,1.506,1.378,1.6458
0.2903,1.5441,1.4091,1.6921
0.2971,1.5852,1.4426,1.7419
0.304,1.6298,1.4853,1.7882
0.3111,1.6732,1.5344,1.8245
0.3184,1.7067,1.574,1.8506
0.3259,1.7223,1.5861,1.87
0.3335,1.7184,1.5721,1.8784
0.3413,1.7024,1.5499,1.8698
0.3493,1.6852,1.5358,1.8492
0.3575,1.676,1.5368,1.8277
0.3658,1.6781,1.5531,1.8132
0.3744,1.6906,1.5796,1.8093
0.3832,1.7093,1.6066,1.8185
0.3921,1.7289,1.6249,1.8396
0.4013,1.744,1.6321,1.8636
0.4107,1.7511,1.6298,1.8814
0.4203,1.7503,1.6202,1.8908
0.4302,1.7447,1.6082,1.8928
0.4402,1.7381,1.5991,1.8891
0.4506,1.7323,1.5938,1.8829
0.4611,1.7282,1.5909,1.8772
0.4719,1.7264,1.5895,1.8751
0.4829,1.7297,1.5913,1.88
0.4942,1.7413,1.6007,1.8944
0.5058,1.7626,1.6215,1.9161
0.5177,1.7901,1.653,1.9386
0.5298,1.8171,1.6882,1.9558
0.5422,1.8373,1.7167,1.9663
0.5549,1.8493,1.7312,1.9754
0.5679,1.8578,1.7319,1.9929
0.5812,1.8699,1.7284,2.023
0.5948,1.89,1.7348,2.059
0.6087,1.9176,1.7558,2.0944
0.6229,1.9491,1.781,2.1331
0.6375,1.9801,1.7999,2.1782
0.6525,2.0066,1.815,2.2185
0.6677,2.025,1.8328,2.2374
0.6834,2.0321,1.8537,2.2276
0.6994,2.0283,1.8721,2.1975
0.7157,2.0204,1.883,2.1679
0.7325,2.0192,1.8899,2.1573
0.7496,2.0318,1.9036,2.1687
0.7672,2.0561,1.9272,2.1936
0.7851,2.0819,1.9511,2.2215
0.8035,2.0995,1.965,2.2433
0.8223,2.1068,1.9685,2.2548
0.8416,2.1089,1.9655,2.2626
0.8613,2.112,1.9577,2.2784
0.8815,2.1181,1.9436,2.3081
0.9021,2.1242,1.921,2.349
0.9232,2.1253,1.8886,2.3915
0.9448,2.1163,1.8517,2.4189
0.9669,2.0955,1.8209,2.4114
0.9896,2.0666,1.8009,2.3715
1.0128,2.0391,1.7828,2.3322
1.0365,2.0214,1.7588,2.3232
1.0607,2.0159,1.7324,2.3458
1.0856,2.0185,1.7101,2.3826
1.111,2.0232,1.6942,2.416
1.137,2.0262,1.6831,2.4393
1.1636,2.0281,1.6724,2.4593
1.1908,2.0306,1.6595,2.4848
1.2187,2.0339,1.6454,2.5141
1.2473,2.0348,1.631,2.5385
1.2765,2.0289,1.6123,2.5531
1.3063,2.0138,1.5843,2.5596
1.3369,1.9907,1.5481,2.5597
1.3682,1.9627,1.51,2.5511
1.4003,1.9333,1.4764,2.5316
1.433,1.906,1.4504,2.5046
1.4666,1.8825,1.4305,2.4774
1.5009,1.8621,1.4132,2.4535
1.5361,1.8404,1.3962,2.4259
1.572,1.8124,1.3797,2.3807
1.6088,1.776,1.3655,2.3099
1.6465,1.735,1.3553,2.2212
1.685,1.6974,1.3493,2.1353
1.7245,1.67,1.3465,2.0712
1.7649,1.6551,1.3456,2.0359
1.8062,1.6509,1.3462,2.0244
1.8485,1.6542,1.3501,2.0267
1.8917,1.6634,1.3609,2.0332
1.936,1.6785,1.3827,2.0377
1.9813,1.6998,1.4176,2.0381
2.0277,1.7256,1.4603,2.0391
2.0752,1.75,1.4935,2.0505
2.1238,1.7635,1.5055,2.0656
2.1735,1.7598,1.5002,2.0642
2.2244,1.7404,1.4841,2.0411
2.2765,1.7132,1.4618,2.0077
2.3298,1.6863,1.4384,1.9769
2.3843,1.6638,1.4161,1.9548
2.4401,1.6433,1.3909,1.9417
2.4973,1.6181,1.3573,1.9292
2.5557,1.583,1.3159,1.9044
2.6155,1.5393,1.2712,1.8641
2.6768,1.4947,1.2276,1.8199
2.7395,1.4573,1.1899,1.7848
2.8036,1.4313,1.1618,1.7632
2.8692,1.4151,1.1426,1.7526
2.9364,1.4036,1.1276,1.747
3.0051,1.3916,1.1133,1.7396
3.0755,1.3761,1.0993,1.7225
3.1475,1.356,1.0877,1.6906
3.2212,1.332,1.0772,1.647
3.2966,1.3055,1.0632,1.6031
3.3738,1.2787,1.0425,1.5684
3.4528,1.2535,1.0175,1.5443
3.5336,1.2318,0.9935,1.5273
3.6163,1.2142,0.9732,1.5149
3.701,1.1998,0.9555,1.5067
3.7876,1.187,0.9389,1.5006
3.8763,1.175,0.9238,1.4945
3.967,1.1648,0.9108,1.4896
4.0599,1.1583,0.901,1.4891
4.155,1.1568,0.8951,1.4949
4.2522,1.1598,0.8932,1.5059
4.3518,1.1656,0.8946,1.5189
4.4537,1.1725,0.8985,1.5302
4.5579,1.1793,0.9042,1.5381
4.6647,1.186,0.9101,1.5456
4.7739,1.1939,0.9146,1.5584
4.8856,1.2044,0.9191,1.5784
5.0,1.218,0.927,1.6004
