# hvsrpy output version 0.5.2
# File Name (),NA
# Method (),geometric-mean
# Azimuth (),0
# Window Length (s),1200.0
# Total Number of Windows (),72
# Frequency Domain Window Rejection Performed (),True
# Lower frequency limit for peaks (Hz),0.1
# Upper frequency limit for peaks (Hz),10.0
# Number of Standard Deviations Used for Rejection () [n],2
# Number of Accepted Windows (),67
# Number of Rejected Windows (),5
# Distribution of f0 (),lognormal
# Median f0 (Hz) [LMf0],6.7154
# Lognormal standard deviation f0 () [SigmaLNf0],0.0671
# 68 % Confidence Interval f0 (Hz),6.2798,to,7.1813
# Median T0 (s) [LMT0],0.1489
# Lognormal standard deviation T0 () [SigmaLNT0],0.0671
# 68 % Confidence Interval T0 (s),0.1393,to,0.1592
# Median Curve Distribution (),lognormal
# Median Curve Peak Frequency (Hz) [f0mc],6.5312
# Median Curve Peak Amplitude (),4.2233
# Frequency (Hz),Median Curve,1 STD Below Median Curve,1 STD Above Median Curve
0.05,1.2983,0.9409,1.7913
0.0513,1.3492,1.0105,1.8014
0.0527,1.4061,1.0741,1.8406
0.0542,1.4696,1.1391,1.8961
0.0556,1.5364,1.2026,1.9628
0.0571,1.6053,1.2515,2.0591
0.0587,1.6729,1.2932,2.1642
0.0602,1.732,1.3428,2.2339
0.0619,1.7732,1.3925,2.258
0.0635,1.7889,1.4157,2.2605
0.0653,1.7793,1.4047,2.2539
0.067,1.7525,1.3771,2.2303
0.0688,1.7184,1.3521,2.1839
0.0707,1.6862,1.3425,2.1181
0.0726,1.6576,1.3473,2.0395
0.0745,1.6245,1.3471,1.959
0.0766,1.5804,1.3303,1.8774
0.0786,1.5295,1.3032,1.795
0.0807,1.4815,1.269,1.7296
0.0829,1.4427,1.2292,1.6931
0.0852,1.4134,1.196,1.6703
0.0875,1.3912,1.1752,1.6468
0.0898,1.3721,1.1644,1.6169
0.0922,1.3516,1.1592,1.5759
0.0947,1.3235,1.1477,1.5262
0.0973,1.2789,1.1142,1.4679
0.0999,1.2134,1.0559,1.3944
0.1026,1.1365,0.9846,1.3117
0.1054,1.0658,0.9169,1.2389
0.1082,1.0149,0.8664,1.1888
0.1111,0.9872,0.8366,1.1649
0.1141,0.9778,0.8237,1.1606
0.1172,0.9792,0.8246,1.1628
0.1204,0.9857,0.8363,1.1619
0.1236,0.9934,0.8523,1.1578
0.127,0.9999,0.867,1.1532
0.1304,1.0048,0.88,1.1473
0.1339,1.0076,0.8907,1.1398
0.1375,1.0059,0.8953,1.1302
0.1412,0.9974,0.8911,1.1164
0.145,0.9826,0.8777,1.1
0.149,0.9646,0.8574,1.0852
0.153,0.9466,0.8367,1.071
0.1571,0.9311,0.8214,1.0555
0.1613,0.9191,0.8104,1.0424
0.1657,0.9091,0.8007,1.0322
0.1702,0.8995,0.7934,1.0198
0.1748,0.8904,0.7883,1.0057
0.1795,0.8844,0.7853,0.996
0.1843,0.8845,0.7877,0.9932
0.1893,0.8928,0.7968,1.0002
0.1944,0.9096,0.812,1.0188
0.1996,0.9325,0.832,1.0451
0.205,0.9566,0.8526,1.0732
0.2106,0.9779,0.8695,1.0999
0.2162,0.9971,0.8842,1.1243
0.2221,1.0182,0.9053,1.1452
0.2281,1.0435,0.9382,1.1605
0.2342,1.0689,0.9758,1.171
0.2405,1.0858,1.0018,1.1769
0.247,1.0886,1.0094,1.1741
0.2537,1.0801,1.0023,1.1639
0.2605,1.0679,0.9897,1.1522
0.2676,1.0568,0.9796,1.1401
0.2748,1.0483,0.9732,1.1293
0.2822,1.0443,0.9692,1.1252
0.2898,1.047,0.9672,1.1333
0.2976,1.0551,0.9662,1.152
0.3057,1.0628,0.9658,1.1697
0.3139,1.066,0.9663,1.176
0.3224,1.0673,0.9708,1.1734
0.3311,1.0745,0.9847,1.1724
0.34,1.0918,1.0081,1.1824
0.3492,1.1142,1.0317,1.2034
0.3586,1.1308,1.0479,1.2202
0.3683,1.1341,1.0537,1.2207
0.3782,1.1263,1.0483,1.2102
0.3884,1.115,1.0366,1.1993
0.3989,1.1062,1.0262,1.1925
0.4097,1.101,1.0207,1.1877
0.4207,1.096,1.0176,1.1805
0.4321,1.0875,1.0112,1.1697
0.4437,1.0748,0.9977,1.1579
0.4557,1.0598,0.9805,1.1455
0.468,1.0457,0.9681,1.1294
0.4806,1.0347,0.9649,1.1095
0.4936,1.0273,0.9677,1.0907
0.5069,1.0236,0.9682,1.0822
0.5206,1.0244,0.9637,1.089
0.5347,1.0308,0.9635,1.1027
0.5491,1.041,0.9737,1.113
0.5639,1.0499,0.9875,1.1162
0.5791,1.0503,0.9916,1.1125
0.5947,1.0394,0.9816,1.1007
0.6108,1.0224,0.9662,1.0817
0.6273,1.0088,0.9554,1.0652
0.6442,1.0065,0.9519,1.0642
0.6616,1.0165,0.9567,1.08
0.6794,1.0328,0.9695,1.1002
0.6978,1.0465,0.9841,1.1129
0.7166,1.0519,0.9915,1.1159
0.7359,1.0495,0.9883,1.1145
0.7558,1.0439,0.9799,1.1119
0.7762,1.039,0.9731,1.1093
0.7971,1.0377,0.9707,1.1093
0.8186,1.0416,0.9743,1.1135
0.8407,1.0504,0.9848,1.1203
0.8634,1.0616,0.9997,1.1274
0.8867,1.0719,1.0143,1.1327
0.9106,1.0796,1.0253,1.1368
0.9352,1.085,1.0313,1.1415
0.9604,1.0876,1.0325,1.1457
0.9863,1.0845,1.0286,1.1434
1.0129,1.0731,1.0182,1.131
1.0403,1.0563,1.0018,1.1137
1.0683,1.0405,0.9848,1.0994
1.0972,1.03,0.9737,1.0895
1.1268,1.0231,0.9685,1.0809
1.1572,1.0161,0.9632,1.0719
1.1884,1.0072,0.9548,1.0624
1.2205,0.9982,0.9457,1.0536
1.2534,0.9919,0.938,1.0489
1.2872,0.9899,0.9323,1.051
1.3219,0.992,0.9294,1.0589
1.3576,0.997,0.929,1.07
1.3942,1.0034,0.931,1.0815
1.4319,1.0108,0.9361,1.0913
1.4705,1.0192,0.9427,1.1019
1.5102,1.0269,0.9456,1.1151
1.5509,1.0296,0.9416,1.1259
1.5928,1.0256,0.9295,1.1315
1.6358,1.0205,0.915,1.1382
1.6799,1.0246,0.9097,1.1539
1.7252,1.0441,0.9222,1.1821
1.7718,1.0768,0.9518,1.2182
1.8196,1.1137,0.9895,1.2534
1.8687,1.1447,1.0233,1.2805
1.9191,1.163,1.0435,1.2962
1.9709,1.1674,1.0456,1.3034
2.0241,1.1624,1.0324,1.3087
2.0787,1.1564,1.0139,1.3189
2.1348,1.1577,1.0007,1.3394
2.1924,1.1699,0.9999,1.3689
2.2515,1.1916,1.013,1.4018
2.3123,1.22,1.0353,1.4377
2.3747,1.2537,1.0613,1.481
2.4387,1.2921,1.0905,1.531
2.5045,1.3325,1.1219,1.5827
2.5721,1.3697,1.1523,1.6282
2.6415,1.3983,1.1743,1.665
2.7128,1.4171,1.1802,1.7015
2.786,1.4311,1.1761,1.7415
2.8612,1.4489,1.1774,1.7831
2.9384,1.4764,1.1889,1.8333
3.0176,1.5141,1.2054,1.902
3.0991,1.5592,1.2226,1.9884
3.1827,1.6072,1.2427,2.0785
3.2686,1.6526,1.27,2.1505
3.3567,1.6887,1.3047,2.1856
3.4473,1.7102,1.3401,2.1825
3.5403,1.7195,1.3663,2.1638
3.6359,1.7278,1.384,2.157
3.734,1.7496,1.4047,2.1792
3.8347,1.7945,1.4355,2.2433
3.9382,1.8639,1.4742,2.3566
4.0444,1.9503,1.5197,2.5028
4.1536,2.0387,1.5722,2.6438
4.2656,2.1123,1.6255,2.745
4.3807,2.16,1.6675,2.7981
4.4989,2.1808,1.6882,2.8171
4.6203,2.1806,1.6888,2.8155
4.745,2.1684,1.6803,2.7981
4.873,2.1562,1.6751,2.7755
5.0045,2.1609,1.6843,2.7723
5.1396,2.2042,1.7215,2.8223
5.2782,2.312,1.8047,2.9618
5.4207,2.5064,1.951,3.2199
5.5669,2.7922,2.1643,3.6022
5.7171,3.144,2.4282,4.0707
5.8714,3.512,2.7134,4.5457
6.0298,3.8419,2.9883,4.9392
6.1925,4.0852,3.2201,5.1826
6.3596,4.2094,3.3807,5.2413
6.5312,4.2233,3.4635,5.1497
6.7074,4.1805,3.4875,5.0112
6.8884,4.1364,3.4765,4.9214
7.0743,4.1059,3.4378,4.9037
7.2651,4.0688,3.3649,4.9199
7.4612,4.0027,3.2628,4.9104
7.6625,3.9001,3.1513,4.8268
7.8692,3.7609,3.0454,4.6444
8.0816,3.585,2.9401,4.3713
8.2996,3.3783,2.8175,4.0507
8.5236,3.1542,2.6726,3.7225
8.7536,2.926,2.5181,3.3998
8.9898,2.7035,2.3598,3.0973
9.2323,2.4961,2.1959,2.8374
9.4814,2.3137,2.0352,2.6303
9.7373,2.1633,1.8936,2.4715
10.0,2.0474,1.7815,2.3529
