# hvsrpy output version 0.5.2
# File Name (),NA
# Method (),geometric-mean
# Azimuth (),0
# Window Length (s),1200.0
# Total Number of Windows (),72
# Frequency Domain Window Rejection Performed (),True
# Lower frequency limit for peaks (Hz),0.1
# Upper frequency limit for peaks (Hz),5.0
# Number of Standard Deviations Used for Rejection () [n],2
# Number of Accepted Windows (),44
# Number of Rejected Windows (),28
# Distribution of f0 (),lognormal
# Median f0 (Hz) [LMf0],0.4225
# Lognormal standard deviation f0 () [SigmaLNf0],0.0501
# 68 % Confidence Interval f0 (Hz),0.4019,to,0.4443
# Median T0 (s) [LMT0],2.3666
# Lognormal standard deviation T0 () [SigmaLNT0],0.0501
# 68 % Confidence Interval T0 (s),2.2509,to,2.4882
# Median Curve Distribution (),lognormal
# Median Curve Peak Frequency (Hz) [f0mc],0.4203
# Median Curve Peak Amplitude (),2.3895
# Frequency (Hz),Median Curve,1 STD Below Median Curve,1 STD Above Median Curve
0.05,1.6712,1.0347,2.6994
0.0512,1.6996,1.0799,2.6749
0.0524,1.7133,1.1267,2.6052
0.0536,1.7082,1.159,2.5176
0.0548,1.6907,1.1762,2.4303
0.0561,1.675,1.1865,2.3646
0.0574,1.6687,1.1984,2.3233
0.0588,1.6681,1.2164,2.2874
0.0602,1.6658,1.234,2.2488
0.0616,1.6569,1.2367,2.2198
0.063,1.6397,1.2153,2.2123
0.0645,1.6203,1.182,2.2211
0.066,1.6103,1.1585,2.2382
0.0675,1.6189,1.1555,2.2682
0.0691,1.6445,1.168,2.3153
0.0707,1.6735,1.1838,2.3658
0.0724,1.691,1.1942,2.3945
0.0741,1.6914,1.1985,2.3871
0.0758,1.679,1.2016,2.3461
0.0776,1.6578,1.2044,2.2817
0.0794,1.6249,1.1988,2.2023
0.0813,1.5766,1.1729,2.1192
0.0832,1.5199,1.1308,2.0428
0.0851,1.4723,1.0951,1.9794
0.0871,1.4495,1.0828,1.9404
0.0892,1.4524,1.0945,1.9273
0.0913,1.4683,1.1237,1.9186
0.0934,1.4811,1.1623,1.8874
0.0956,1.4791,1.1993,1.8241
0.0978,1.457,1.2236,1.7351
0.1001,1.4171,1.2229,1.6423
0.1025,1.3679,1.1864,1.5773
0.1049,1.3207,1.1292,1.5448
0.1073,1.2847,1.0821,1.5251
0.1098,1.264,1.0589,1.509
0.1124,1.2577,1.0548,1.4997
0.115,1.2583,1.0581,1.4964
0.1177,1.2539,1.0599,1.4834
0.1205,1.2344,1.0538,1.4459
0.1233,1.1993,1.0378,1.3858
0.1262,1.1567,1.0147,1.3186
0.1291,1.1156,0.9859,1.2624
0.1322,1.0816,0.9581,1.2209
0.1352,1.0582,0.9405,1.1906
0.1384,1.0475,0.933,1.176
0.1417,1.049,0.9304,1.1826
0.145,1.0599,0.9336,1.2032
0.1484,1.0772,0.9469,1.2254
0.1518,1.0996,0.9702,1.2463
0.1554,1.1275,1.0005,1.2706
0.159,1.161,1.0365,1.3004
0.1628,1.1974,1.0765,1.3319
0.1666,1.2307,1.1153,1.3581
0.1705,1.2539,1.1425,1.3761
0.1745,1.2635,1.1476,1.3911
0.1785,1.2633,1.1364,1.4043
0.1827,1.2625,1.1285,1.4124
0.187,1.2701,1.136,1.42
0.1914,1.29,1.159,1.4358
0.1959,1.3207,1.1918,1.4636
0.2004,1.3584,1.2291,1.5014
0.2051,1.4002,1.2679,1.5462
0.2099,1.4439,1.3089,1.5928
0.2149,1.4874,1.3542,1.6336
0.2199,1.5277,1.4002,1.6669
0.225,1.5616,1.4338,1.7007
0.2303,1.5864,1.4471,1.739
0.2357,1.6019,1.4495,1.7702
0.2412,1.6112,1.4534,1.7862
0.2469,1.6199,1.4635,1.7931
0.2526,1.6329,1.4785,1.8034
0.2585,1.6533,1.4963,1.8268
0.2646,1.6819,1.516,1.8659
0.2708,1.717,1.5372,1.9177
0.2771,1.7567,1.5612,1.9767
0.2836,1.8009,1.594,2.0347
0.2903,1.8508,1.6436,2.0842
0.2971,1.9061,1.711,2.1235
0.304,1.9622,1.7834,2.1589
0.3111,2.0113,1.8427,2.1953
0.3184,2.0479,1.8826,2.2277
0.3259,2.0735,1.9101,2.2508
0.3335,2.0941,1.9314,2.2705
0.3413,2.1141,1.9486,2.2936
0.3493,2.1326,1.9655,2.314
0.3575,2.1466,1.9855,2.3208
0.3658,2.157,2.0049,2.3208
0.3744,2.1718,2.0196,2.3355
0.3832,2.2012,2.0403,2.3749
0.3921,2.2499,2.0813,2.4322
0.4013,2.3099,2.1383,2.4951
0.4107,2.3624,2.1904,2.548
0.4203,2.3895,2.2174,2.5751
0.4302,2.3856,2.2143,2.5701
0.4402,2.3579,2.1893,2.5394
0.4506,2.3165,2.1521,2.4934
0.4611,2.2657,2.108,2.4352
0.4719,2.2051,2.058,2.3628
0.4829,2.1362,2.0014,2.2801
0.4942,2.0663,1.9404,2.2004
0.5058,2.0052,1.8812,2.1373
0.5177,1.9582,1.8322,2.0929
0.5298,1.9227,1.7953,2.0591
0.5422,1.8905,1.7605,2.03
0.5549,1.8549,1.7179,2.0028
0.5679,1.8153,1.671,1.9721
0.5812,1.7763,1.6306,1.9351
0.5948,1.7434,1.6021,1.8972
0.6087,1.7198,1.5839,1.8673
0.6229,1.7062,1.5744,1.8491
0.6375,1.7036,1.5773,1.8399
0.6525,1.7137,1.5966,1.8394
0.6677,1.7385,1.6305,1.8537
0.6834,1.7771,1.6725,1.8883
0.6994,1.8242,1.7166,1.9387
0.7157,1.8718,1.7588,1.9921
0.7325,1.9138,1.7994,2.0354
0.7496,1.9485,1.8397,2.0638
0.7672,1.9767,1.876,2.0828
0.7851,1.9961,1.8999,2.0973
0.8035,2.0013,1.9055,2.102
0.8223,1.9883,1.8925,2.089
0.8416,1.9618,1.8677,2.0606
0.8613,1.9353,1.8447,2.0302
0.8815,1.9237,1.8369,2.0147
0.9021,1.9348,1.849,2.0245
0.9232,1.9646,1.8756,2.0579
0.9448,2.0016,1.903,2.1054
0.9669,2.0339,1.9205,2.1541
0.9896,2.0559,1.9274,2.193
1.0128,2.0669,1.9268,2.2172
1.0365,2.0661,1.9176,2.2261
1.0607,2.051,1.8948,2.2201
1.0856,2.0197,1.8549,2.1991
1.111,1.9735,1.8007,2.1629
1.137,1.9161,1.7381,2.1122
1.1636,1.8523,1.6728,2.0512
1.1908,1.7892,1.6087,1.9899
1.2187,1.7357,1.5513,1.9419
1.2473,1.6999,1.5073,1.9172
1.2765,1.6853,1.4798,1.9194
1.3063,1.6881,1.4648,1.9456
1.3369,1.7,1.455,1.9863
1.3682,1.7139,1.4464,2.0308
1.4003,1.7278,1.4395,2.0737
1.433,1.7446,1.4379,2.1169
1.4666,1.7677,1.4442,2.1636
1.5009,1.7973,1.4588,2.2144
1.5361,1.8309,1.4794,2.266
1.572,1.8643,1.503,2.3125
1.6088,1.8925,1.5266,2.3461
1.6465,1.9104,1.5466,2.3598
1.685,1.915,1.5596,2.3514
1.7245,1.9085,1.5654,2.3267
1.7649,1.8987,1.5685,2.2984
1.8062,1.8948,1.5748,2.2799
1.8485,1.9016,1.5881,2.277
1.8917,1.9162,1.6069,2.2851
1.936,1.9298,1.6248,2.2921
1.9813,1.9331,1.635,2.2855
2.0277,1.9207,1.6337,2.2582
2.0752,1.8936,1.6214,2.2116
2.1238,1.8573,1.6006,2.155
2.1735,1.818,1.5734,2.1005
2.2244,1.7801,1.5404,2.0571
2.2765,1.745,1.5029,2.026
2.3298,1.7113,1.4629,2.0017
2.3843,1.6769,1.4228,1.9763
2.4401,1.6412,1.3854,1.9444
2.4973,1.6057,1.3532,1.9055
2.5557,1.5726,1.3273,1.8634
2.6155,1.5428,1.3065,1.8218
2.6768,1.5149,1.2882,1.7816
2.7395,1.4866,1.2693,1.7412
2.8036,1.4557,1.2474,1.6988
2.8692,1.4212,1.221,1.6544
2.9364,1.3837,1.1889,1.6104
3.0051,1.3441,1.151,1.5695
3.0755,1.304,1.1097,1.5322
3.1475,1.2649,1.0687,1.4972
3.2212,1.2289,1.0314,1.4643
3.2966,1.1978,0.9999,1.435
3.3738,1.1722,0.9742,1.4104
3.4528,1.1506,0.9523,1.3903
3.5336,1.1305,0.9312,1.3725
3.6163,1.1095,0.9086,1.3548
3.701,1.0872,0.8852,1.3352
3.7876,1.0653,0.864,1.3134
3.8763,1.0471,0.849,1.2914
3.967,1.0357,0.8418,1.2743
4.0599,1.0332,0.8422,1.2675
4.155,1.0396,0.8488,1.2734
4.2522,1.054,0.8602,1.2915
4.3518,1.0755,0.8758,1.3207
4.4537,1.104,0.895,1.3617
4.5579,1.1398,0.9173,1.4162
4.6647,1.1831,0.9423,1.4854
4.7739,1.233,0.9698,1.5676
4.8856,1.287,0.9986,1.6587
5.0,1.3419,1.0272,1.753
