# hvsrpy output version 0.5.2
# File Name (),NA
# Method (),geometric-mean
# Azimuth (),0
# Window Length (s),1200.0
# Total Number of Windows (),72
# Frequency Domain Window Rejection Performed (),True
# Lower frequency limit for peaks (Hz),0.1
# Upper frequency limit for peaks (Hz),10.0
# Number of Standard Deviations Used for Rejection () [n],2
# Number of Accepted Windows (),54
# Number of Rejected Windows (),18
# Distribution of f0 (),lognormal
# Median f0 (Hz) [LMf0],6.3314
# Lognormal standard deviation f0 () [SigmaLNf0],0.0296
# 68 % Confidence Interval f0 (Hz),6.1468,to,6.5216
# Median T0 (s) [LMT0],0.1579
# Lognormal standard deviation T0 () [SigmaLNT0],0.0296
# 68 % Confidence Interval T0 (s),0.1533,to,0.1627
# Median Curve Distribution (),lognormal
# Median Curve Peak Frequency (Hz) [f0mc],6.3596
# Median Curve Peak Amplitude (),4.4481
# Frequency (Hz),Median Curve,1 STD Below Median Curve,1 STD Above Median Curve
0.05,0.9893,0.682,1.4351
0.0513,0.9816,0.697,1.3823
0.0527,0.9863,0.7121,1.3662
0.0542,0.9976,0.7158,1.3903
0.0556,1.0066,0.7106,1.4259
0.0571,1.0088,0.7054,1.4427
0.0587,1.0064,0.7047,1.4372
0.0602,1.0067,0.712,1.4232
0.0619,1.0153,0.7319,1.4083
0.0635,1.0336,0.7611,1.4035
0.0653,1.057,0.7905,1.4132
0.067,1.0759,0.8115,1.4266
0.0688,1.0841,0.8187,1.4356
0.0707,1.0843,0.8168,1.4394
0.0726,1.0831,0.8163,1.437
0.0745,1.0825,0.8207,1.4278
0.0766,1.0796,0.8226,1.4169
0.0786,1.0729,0.8184,1.4064
0.0807,1.0712,0.8163,1.4056
0.0829,1.0878,0.8297,1.4262
0.0852,1.1221,0.8631,1.4587
0.0875,1.1559,0.9011,1.4829
0.0898,1.1712,0.9226,1.4867
0.0922,1.1658,0.924,1.4711
0.0947,1.1506,0.9183,1.4415
0.0973,1.1342,0.9136,1.408
0.0999,1.1166,0.9044,1.3785
0.1026,1.0943,0.889,1.3469
0.1054,1.068,0.8771,1.3003
0.1082,1.0412,0.8727,1.2421
0.1111,1.0163,0.8676,1.1904
0.1141,0.9957,0.8617,1.1507
0.1172,0.9841,0.8632,1.122
0.1204,0.9855,0.8688,1.118
0.1236,0.9983,0.8757,1.1379
0.127,1.0142,0.8862,1.1607
0.1304,1.0241,0.8954,1.1713
0.1339,1.0236,0.8972,1.1677
0.1375,1.0154,0.8933,1.1542
0.1412,1.0054,0.8887,1.1374
0.145,0.9972,0.8853,1.1233
0.149,0.9911,0.8828,1.1128
0.153,0.9863,0.8836,1.1009
0.1571,0.9827,0.8894,1.0858
0.1613,0.9802,0.8949,1.0737
0.1657,0.9762,0.894,1.0658
0.1702,0.9677,0.8879,1.0546
0.1748,0.9565,0.8791,1.0406
0.1795,0.9487,0.8698,1.0349
0.1843,0.949,0.8646,1.0416
0.1893,0.9559,0.8656,1.0557
0.1944,0.9652,0.8682,1.0731
0.1996,0.9736,0.8681,1.092
0.205,0.9813,0.8695,1.1075
0.2106,0.9903,0.879,1.1157
0.2162,1.0023,0.8967,1.1204
0.2221,1.0189,0.9179,1.131
0.2281,1.0423,0.9425,1.1526
0.2342,1.073,0.973,1.1832
0.2405,1.1038,1.0032,1.2144
0.247,1.1212,1.0223,1.2297
0.2537,1.1184,1.0252,1.2201
0.2605,1.1029,1.0175,1.1955
0.2676,1.0863,1.0061,1.1728
0.2748,1.0732,0.9944,1.1582
0.2822,1.0634,0.9839,1.1492
0.2898,1.0577,0.9747,1.1478
0.2976,1.0572,0.9704,1.1518
0.3057,1.0602,0.9737,1.1544
0.3139,1.0643,0.9808,1.155
0.3224,1.0703,0.9864,1.1613
0.3311,1.0811,0.9927,1.1773
0.34,1.097,1.0063,1.1959
0.3492,1.1129,1.0234,1.2103
0.3586,1.1218,1.0335,1.2176
0.3683,1.121,1.0352,1.214
0.3782,1.1138,1.0327,1.2012
0.3884,1.1048,1.0255,1.1902
0.3989,1.0974,1.0152,1.1863
0.4097,1.0922,1.0079,1.1836
0.4207,1.0882,1.0042,1.1791
0.4321,1.0837,1.0006,1.1738
0.4437,1.0771,0.9967,1.1639
0.4557,1.0659,0.992,1.1453
0.468,1.0492,0.9818,1.1213
0.4806,1.0301,0.9641,1.1006
0.4936,1.0153,0.9479,1.0875
0.5069,1.0112,0.9434,1.0837
0.5206,1.0195,0.952,1.0918
0.5347,1.0372,0.968,1.1113
0.5491,1.0577,0.9855,1.1352
0.5639,1.0736,0.9996,1.153
0.5791,1.078,1.0055,1.1557
0.5947,1.068,0.9989,1.1419
0.6108,1.0474,0.9809,1.1184
0.6273,1.0258,0.9613,1.0947
0.6442,1.0131,0.9514,1.0787
0.6616,1.0127,0.9546,1.0744
0.6794,1.0212,0.9659,1.0796
0.6978,1.0314,0.9779,1.0877
0.7166,1.037,0.9841,1.0928
0.7359,1.0355,0.9811,1.0929
0.7558,1.0278,0.9723,1.0865
0.7762,1.0178,0.9641,1.0744
0.7971,1.0108,0.96,1.0643
0.8186,1.0104,0.9594,1.0641
0.8407,1.0158,0.9623,1.0723
0.8634,1.0228,0.9666,1.0824
0.8867,1.0272,0.9679,1.0901
0.9106,1.0279,0.9652,1.0946
0.9352,1.0275,0.962,1.0974
0.9604,1.0285,0.9616,1.1
0.9863,1.0301,0.9634,1.1014
1.0129,1.0287,0.9642,1.0976
1.0403,1.0223,0.961,1.0874
1.0683,1.0123,0.9526,1.0757
1.0972,1.0019,0.9409,1.0668
1.1268,0.9922,0.9272,1.0617
1.1572,0.983,0.9122,1.0594
1.1884,0.9749,0.8984,1.0579
1.2205,0.9697,0.8889,1.0579
1.2534,0.969,0.8852,1.0608
1.2872,0.9728,0.8876,1.0661
1.3219,0.9793,0.8938,1.0729
1.3576,0.9862,0.8997,1.081
1.3942,0.9915,0.902,1.0899
1.4319,0.9949,0.9013,1.0984
1.4705,0.9975,0.9,1.1056
1.5102,0.9993,0.8995,1.1101
1.5509,0.9984,0.8984,1.1094
1.5928,0.9937,0.8946,1.1038
1.6358,0.9883,0.8896,1.0981
1.6799,0.9889,0.8884,1.1008
1.7252,1.0012,0.8947,1.1204
1.7718,1.0264,0.9115,1.1558
1.8196,1.0601,0.9398,1.1959
1.8687,1.0957,0.9764,1.2296
1.9191,1.1263,1.012,1.2536
1.9709,1.1479,1.0349,1.2731
2.0241,1.1609,1.0421,1.2933
2.0787,1.1717,1.0419,1.3176
2.1348,1.1877,1.0424,1.3534
2.1924,1.2114,1.0495,1.3983
2.2515,1.2382,1.0679,1.4355
2.3123,1.2617,1.0937,1.4554
2.3747,1.2794,1.1191,1.4628
2.4387,1.2945,1.1406,1.4691
2.5045,1.3119,1.1571,1.4875
2.5721,1.3346,1.1687,1.5242
2.6415,1.3619,1.1794,1.5727
2.7128,1.3919,1.1947,1.6217
2.786,1.4249,1.2161,1.6696
2.8612,1.4649,1.2424,1.7273
2.9384,1.5152,1.2746,1.8011
3.0176,1.5726,1.3145,1.8813
3.0991,1.6284,1.3592,1.9509
3.1827,1.6754,1.4023,2.0018
3.2686,1.7134,1.4355,2.045
3.3567,1.7459,1.4539,2.0965
3.4473,1.7751,1.462,2.1552
3.5403,1.8012,1.4692,2.2083
3.6359,1.8278,1.4827,2.2531
3.734,1.8637,1.5081,2.3033
3.8347,1.9182,1.5495,2.3746
3.9382,1.9917,1.6053,2.471
4.0444,2.0732,1.6656,2.5805
4.1536,2.1474,1.7178,2.6844
4.2656,2.2055,1.7563,2.7696
4.3807,2.2507,1.7868,2.8351
4.4989,2.2954,1.8208,2.8937
4.6203,2.3526,1.8675,2.9638
4.745,2.4284,1.9327,3.0513
4.873,2.5214,2.019,3.1488
5.0045,2.6259,2.1187,3.2547
5.1396,2.7398,2.2226,3.3772
5.2782,2.8769,2.342,3.5339
5.4207,3.0691,2.5032,3.763
5.5669,3.3399,2.7206,4.1001
5.7171,3.6694,2.9838,4.5124
5.8714,3.9931,3.2597,4.8916
6.0298,4.2461,3.5036,5.1459
6.1925,4.3983,3.6798,5.257
6.3596,4.4481,3.7715,5.246
6.5312,4.4062,3.7757,5.142
6.7074,4.2966,3.7058,4.9816
6.8884,4.1569,3.5958,4.8055
7.0743,4.0235,3.4838,4.6469
7.2651,3.9162,3.3855,4.5301
7.4612,3.8358,3.2944,4.466
7.6625,3.7701,3.2015,4.4397
7.8692,3.6946,3.0941,4.4115
8.0816,3.5778,2.9568,4.3292
8.2996,3.4058,2.7892,4.1588
8.5236,3.1994,2.6095,3.9227
8.7536,2.9906,2.4374,3.6694
8.9898,2.7953,2.2793,3.4282
9.2323,2.6157,2.1322,3.2088
9.4814,2.4522,1.9975,3.0104
9.7373,2.3092,1.8813,2.8345
10.0,2.1915,1.7877,2.6864
