# hvsrpy output version 0.5.2
# File Name (),NA
# Method (),geometric-mean
# Azimuth (),0
# Window Length (s),3600.0
# Total Number of Windows (),24
# Frequency Domain Window Rejection Performed (),True
# Lower frequency limit for peaks (Hz),0.006
# Upper frequency limit for peaks (Hz),9.9
# Number of Standard Deviations Used for Rejection () [n],2
# Number of Accepted Windows (),18
# Number of Rejected Windows (),6
# Distribution of f0 (),lognormal
# Median f0 (Hz) [LMf0],4.2252
# Lognormal standard deviation f0 () [SigmaLNf0],0.1412
# 68 % Confidence Interval f0 (Hz),3.6687,to,4.8661
# Median T0 (s) [LMT0],0.2367
# Lognormal standard deviation T0 () [SigmaLNT0],0.1412
# 68 % Confidence Interval T0 (s),0.2055,to,0.2726
# Median Curve Distribution (),lognormal
# Median Curve Peak Frequency (Hz) [f0mc],3.9984
# Median Curve Peak Amplitude (),2.1486
# Frequency (Hz),Median Curve,1 STD Below Median Curve,1 STD Above Median Curve
0.005,0.667,0.3234,1.3759
0.0052,0.6838,0.3136,1.4913
0.0054,0.7121,0.3117,1.6267
0.0056,0.7326,0.3192,1.6815
0.0058,0.7412,0.3236,1.6977
0.0061,0.7153,0.3407,1.5018
0.0063,0.6708,0.3575,1.2588
0.0065,0.6418,0.3682,1.1187
0.0068,0.6336,0.3853,1.0421
0.0071,0.6622,0.4067,1.0783
0.0073,0.7252,0.4467,1.1773
0.0076,0.7845,0.4724,1.3027
0.0079,0.8214,0.4787,1.4094
0.0082,0.8106,0.4977,1.3204
0.0085,0.7683,0.491,1.2023
0.0089,0.7382,0.4722,1.1543
0.0092,0.7418,0.463,1.1884
0.0096,0.7504,0.457,1.2321
0.0099,0.7204,0.4238,1.2244
0.0103,0.6584,0.3818,1.1352
0.0107,0.5931,0.3645,0.9648
0.0112,0.5527,0.3734,0.8181
0.0116,0.5495,0.3891,0.7761
0.012,0.5659,0.3951,0.8106
0.0125,0.5738,0.395,0.8335
0.013,0.5681,0.3853,0.8377
0.0135,0.5669,0.3939,0.8157
0.014,0.5798,0.4143,0.8112
0.0146,0.5913,0.4232,0.826
0.0151,0.5839,0.4206,0.8106
0.0157,0.5725,0.4126,0.7944
0.0163,0.5779,0.3984,0.8381
0.017,0.5801,0.3926,0.8571
0.0176,0.5572,0.3899,0.7964
0.0183,0.5244,0.3817,0.7204
0.019,0.508,0.3849,0.6704
0.0198,0.5142,0.3958,0.6679
0.0205,0.5214,0.3967,0.6854
0.0213,0.5152,0.3915,0.678
0.0222,0.508,0.3956,0.6521
0.023,0.5157,0.4119,0.6456
0.0239,0.5243,0.4154,0.6617
0.0249,0.5126,0.3942,0.6664
0.0258,0.492,0.372,0.6508
0.0268,0.4864,0.3626,0.6524
0.0279,0.5021,0.3772,0.6684
0.029,0.5283,0.4139,0.6742
0.0301,0.5484,0.4489,0.6699
0.0313,0.5561,0.4477,0.6906
0.0325,0.5527,0.4266,0.716
0.0338,0.5411,0.4116,0.7113
0.0351,0.5353,0.398,0.7198
0.0364,0.5458,0.3961,0.752
0.0379,0.568,0.4146,0.7783
0.0393,0.5853,0.436,0.7857
0.0409,0.5879,0.4417,0.7826
0.0425,0.5787,0.4304,0.778
0.0441,0.5696,0.4182,0.7759
0.0458,0.5827,0.4239,0.8009
0.0476,0.6174,0.4473,0.8521
0.0495,0.645,0.4689,0.8874
0.0514,0.6557,0.475,0.905
0.0534,0.6705,0.4909,0.9158
0.0555,0.7094,0.5328,0.9445
0.0576,0.767,0.5861,1.0037
0.0599,0.8195,0.6351,1.0576
0.0622,0.8532,0.6693,1.0875
0.0646,0.8871,0.7037,1.1183
0.0671,0.9448,0.7605,1.1738
0.0698,1.017,0.842,1.2283
0.0725,1.0772,0.9251,1.2543
0.0753,1.1255,0.9924,1.2765
0.0782,1.1688,1.0317,1.324
0.0813,1.1856,1.0529,1.335
0.0844,1.1561,1.0465,1.2773
0.0877,1.0952,1.0031,1.1956
0.0911,1.0347,0.9652,1.1092
0.0947,0.9875,0.9439,1.0331
0.0984,0.9536,0.9167,0.9919
0.1022,0.9411,0.8902,0.9949
0.1062,0.9441,0.8839,1.0084
0.1103,0.9512,0.8861,1.0212
0.1146,0.978,0.8982,1.0648
0.1191,1.0307,0.9349,1.1362
0.1237,1.0754,0.9781,1.1825
0.1285,1.0778,0.9796,1.1858
0.1335,1.0408,0.9449,1.1464
0.1387,0.9925,0.9135,1.0783
0.1441,0.9531,0.8843,1.0271
0.1497,0.9226,0.849,1.0026
0.1556,0.8945,0.8234,0.9717
0.1616,0.8658,0.8012,0.9356
0.1679,0.8436,0.7863,0.905
0.1744,0.8409,0.7897,0.8954
0.1812,0.8606,0.8147,0.9092
0.1883,0.8879,0.8402,0.9382
0.1956,0.9071,0.8458,0.9728
0.2032,0.9239,0.8533,1.0004
0.2112,0.9463,0.8818,1.0154
0.2194,0.9684,0.9136,1.0266
0.2279,0.9805,0.9267,1.0375
0.2368,0.9773,0.921,1.037
0.246,0.961,0.9053,1.0201
0.2556,0.9409,0.8877,0.9974
0.2655,0.9268,0.8843,0.9713
0.2759,0.9184,0.8822,0.956
0.2866,0.9099,0.8682,0.9536
0.2978,0.8994,0.8594,0.9412
0.3094,0.8864,0.8399,0.9355
0.3214,0.8713,0.8194,0.9265
0.3339,0.8588,0.8109,0.9094
0.3469,0.8519,0.8109,0.8949
0.3604,0.8498,0.8123,0.889
0.3745,0.8523,0.814,0.8924
0.3891,0.8561,0.8182,0.8959
0.4042,0.8527,0.8164,0.8907
0.4199,0.8399,0.8047,0.8767
0.4363,0.8254,0.7917,0.8607
0.4533,0.8139,0.7797,0.8495
0.4709,0.8073,0.7739,0.8422
0.4893,0.8154,0.7899,0.8418
0.5083,0.8461,0.8241,0.8687
0.5281,0.8898,0.8593,0.9214
0.5487,0.9272,0.8891,0.967
0.57,0.9549,0.9134,0.9984
0.5922,0.9847,0.9398,1.0316
0.6153,1.0213,0.9798,1.0645
0.6392,1.0569,1.0231,1.0918
0.6641,1.0801,1.0497,1.1114
0.69,1.0804,1.052,1.1096
0.7168,1.0556,1.0168,1.0958
0.7447,1.0291,0.9773,1.0837
0.7737,1.0358,0.9751,1.1003
0.8039,1.0766,1.0118,1.1456
0.8352,1.1087,1.0537,1.1666
0.8677,1.0983,1.0611,1.1368
0.9015,1.0588,1.0296,1.0888
0.9366,1.0157,0.978,1.0548
0.973,0.977,0.9244,1.0325
1.0109,0.9412,0.8755,1.0118
1.0503,0.9136,0.8411,0.9924
1.0912,0.9064,0.8444,0.9729
1.1336,0.9282,0.8805,0.9784
1.1778,0.9748,0.9202,1.0327
1.2236,1.0324,0.9626,1.1072
1.2713,1.0945,1.012,1.1837
1.3208,1.1602,1.0806,1.2457
1.3722,1.2149,1.1454,1.2887
1.4256,1.2395,1.1718,1.3111
1.4811,1.2544,1.1862,1.3267
1.5388,1.3023,1.1853,1.431
1.5987,1.3793,1.2269,1.5507
1.661,1.4596,1.3268,1.6058
1.7256,1.5326,1.4158,1.659
1.7928,1.5963,1.4563,1.7499
1.8626,1.6563,1.5093,1.8177
1.9351,1.7178,1.5778,1.8702
2.0105,1.7708,1.6119,1.9454
2.0888,1.7972,1.614,2.0013
2.1701,1.799,1.5935,2.031
2.2546,1.8018,1.5909,2.0406
2.3424,1.8195,1.6104,2.0558
2.4336,1.8331,1.6275,2.0647
2.5283,1.8352,1.6345,2.0605
2.6267,1.8365,1.6385,2.0586
2.729,1.8392,1.6393,2.0635
2.8353,1.839,1.6247,2.0814
2.9456,1.8424,1.5999,2.1216
3.0603,1.86,1.604,2.1569
3.1795,1.9036,1.6601,2.183
3.3033,1.978,1.7486,2.2376
3.4319,2.0587,1.8451,2.297
3.5655,2.1106,1.9151,2.326
3.7043,2.1346,1.9417,2.3467
3.8486,2.1482,1.9621,2.3519
3.9984,2.1486,1.9545,2.362
4.1541,2.1295,1.8843,2.4066
4.3158,2.0912,1.7979,2.4323
4.4838,2.0331,1.7291,2.3906
4.6584,1.965,1.675,2.3051
4.8398,1.9025,1.6328,2.2169
5.0282,1.8395,1.5618,2.1665
5.224,1.7574,1.4593,2.1163
5.4274,1.6669,1.3725,2.0245
5.6387,1.587,1.3258,1.8997
5.8582,1.5155,1.2964,1.7716
6.0863,1.432,1.2428,1.65
6.3233,1.3265,1.1583,1.5192
6.5695,1.2286,1.0757,1.4032
6.8253,1.178,1.032,1.3445
7.091,1.1774,1.0204,1.3585
7.3671,1.1923,1.0073,1.4112
7.6539,1.1864,0.9795,1.4369
7.9519,1.159,0.9446,1.4221
8.2615,1.1403,0.9237,1.4076
8.5832,1.147,0.9259,1.4208
8.9173,1.1631,0.9324,1.4509
9.2645,1.1692,0.9215,1.4834
9.6252,1.1676,0.9037,1.5086
10.0,1.1654,0.8928,1.5212
