# hvsrpy output version 0.5.2
# File Name (),NA
# Method (),geometric-mean
# Azimuth (),0
# Window Length (s),1200.0
# Total Number of Windows (),72
# Frequency Domain Window Rejection Performed (),True
# Lower frequency limit for peaks (Hz),0.1
# Upper frequency limit for peaks (Hz),5.0
# Number of Standard Deviations Used for Rejection () [n],2
# Number of Accepted Windows (),71
# Number of Rejected Windows (),1
# Distribution of f0 (),lognormal
# Median f0 (Hz) [LMf0],0.7394
# Lognormal standard deviation f0 () [SigmaLNf0],0.5765
# 68 % Confidence Interval f0 (Hz),0.4155,to,1.316
# Median T0 (s) [LMT0],1.3524
# Lognormal standard deviation T0 () [SigmaLNT0],0.5765
# 68 % Confidence Interval T0 (s),0.7599,to,2.4069
# Median Curve Distribution (),lognormal
# Median Curve Peak Frequency (Hz) [f0mc],0.4302
# Median Curve Peak Amplitude (),2.2257
# Frequency (Hz),Median Curve,1 STD Below Median Curve,1 STD Above Median Curve
0.05,1.0674,0.7501,1.5189
0.0512,1.0518,0.7494,1.4762
0.0524,1.0398,0.7478,1.4457
0.0536,1.0366,0.7536,1.4257
0.0548,1.0483,0.7737,1.4203
0.0561,1.0781,0.8107,1.4336
0.0574,1.1235,0.8604,1.4671
0.0588,1.1779,0.9138,1.5183
0.0602,1.2351,0.9644,1.5818
0.0616,1.2948,1.0153,1.6513
0.063,1.3617,1.0766,1.7223
0.0645,1.44,1.1523,1.7995
0.066,1.5257,1.233,1.888
0.0675,1.6046,1.3055,1.9722
0.0691,1.6589,1.3597,2.024
0.0707,1.6768,1.3844,2.0309
0.0724,1.6553,1.3699,2.0001
0.0741,1.5994,1.3208,1.9367
0.0758,1.5223,1.2564,1.8443
0.0776,1.4419,1.1944,1.7408
0.0794,1.3732,1.1427,1.6501
0.0813,1.3225,1.1025,1.5863
0.0832,1.2884,1.0733,1.5466
0.0851,1.2655,1.057,1.5151
0.0871,1.2497,1.0544,1.4811
0.0892,1.2405,1.0617,1.4495
0.0913,1.238,1.072,1.4298
0.0934,1.2394,1.0799,1.4224
0.0956,1.2391,1.0807,1.4208
0.0978,1.2324,1.0725,1.4162
0.1001,1.2181,1.0586,1.4017
0.1025,1.2001,1.0422,1.3819
0.1049,1.186,1.0254,1.3718
0.1073,1.1852,1.018,1.3798
0.1098,1.2035,1.0326,1.4026
0.1124,1.2391,1.0677,1.4381
0.115,1.2817,1.1088,1.4817
0.1177,1.3156,1.1405,1.5175
0.1205,1.3281,1.1523,1.5307
0.1233,1.3157,1.1407,1.5176
0.1262,1.2838,1.1131,1.4806
0.1291,1.2416,1.0786,1.4292
0.1322,1.1988,1.0425,1.3785
0.1352,1.1621,1.0107,1.3363
0.1384,1.134,0.9895,1.2997
0.1417,1.1132,0.9791,1.2657
0.145,1.0979,0.9742,1.2372
0.1484,1.0876,0.9695,1.2199
0.1518,1.0832,0.9653,1.2155
0.1554,1.0857,0.9649,1.2216
0.159,1.0947,0.9707,1.2344
0.1628,1.1069,0.9816,1.2482
0.1666,1.1179,0.9932,1.2583
0.1705,1.1243,0.9992,1.2649
0.1745,1.1262,0.9973,1.2718
0.1785,1.1282,0.9951,1.2791
0.1827,1.137,1.005,1.2863
0.187,1.1578,1.0323,1.2984
0.1914,1.1914,1.0724,1.3236
0.1959,1.2344,1.1168,1.3643
0.2004,1.2811,1.16,1.4148
0.2051,1.327,1.2004,1.467
0.2099,1.3698,1.2385,1.515
0.2149,1.4089,1.2762,1.5554
0.2199,1.4444,1.3144,1.5872
0.225,1.4756,1.3508,1.612
0.2303,1.5009,1.3791,1.6335
0.2357,1.5192,1.3956,1.6537
0.2412,1.5319,1.4029,1.6727
0.2469,1.5435,1.4075,1.6927
0.2526,1.5618,1.4198,1.7179
0.2585,1.5951,1.4508,1.7539
0.2646,1.6494,1.5048,1.8079
0.2708,1.722,1.5755,1.8821
0.2771,1.7998,1.649,1.9644
0.2836,1.8631,1.7098,2.0301
0.2903,1.8964,1.7443,2.0618
0.2971,1.8997,1.7486,2.0638
0.304,1.8885,1.7356,2.0548
0.3111,1.8825,1.7265,2.0527
0.3184,1.8936,1.7357,2.0658
0.3259,1.9222,1.7669,2.0911
0.3335,1.9605,1.8122,2.1211
0.3413,1.9968,1.8543,2.1502
0.3493,2.0202,1.8785,2.1727
0.3575,2.0273,1.885,2.1803
0.3658,2.0245,1.8845,2.175
0.3744,2.0253,1.8891,2.1713
0.3832,2.0419,1.9088,2.1843
0.3921,2.0786,1.9451,2.2213
0.4013,2.1286,1.9893,2.2777
0.4107,2.1776,2.0304,2.3355
0.4203,2.212,2.0622,2.3726
0.4302,2.2257,2.0794,2.3823
0.4402,2.2209,2.0747,2.3774
0.4506,2.2006,2.0459,2.3669
0.4611,2.1639,2.0001,2.3412
0.4719,2.11,1.9443,2.2898
0.4829,2.0432,1.8826,2.2176
0.4942,1.974,1.8204,2.1405
0.5058,1.9136,1.7672,2.0721
0.5177,1.8686,1.7313,2.0169
0.5298,1.8382,1.7109,1.975
0.5422,1.8157,1.6956,1.9443
0.5549,1.7937,1.6769,1.9186
0.5679,1.7687,1.6524,1.8933
0.5812,1.7417,1.6245,1.8672
0.5948,1.7149,1.5991,1.8392
0.6087,1.6905,1.5799,1.809
0.6229,1.6704,1.5619,1.7865
0.6375,1.6583,1.5369,1.7894
0.6525,1.6605,1.5142,1.821
0.6677,1.6829,1.5135,1.8711
0.6834,1.7271,1.5444,1.9314
0.6994,1.7882,1.6037,1.9939
0.7157,1.8554,1.6778,2.0517
0.7325,1.9164,1.7467,2.1027
0.7496,1.9638,1.7986,2.144
0.7672,1.9966,1.8376,2.1693
0.7851,2.017,1.8716,2.1738
0.8035,2.025,1.9001,2.1581
0.8223,2.018,1.9131,2.1287
0.8416,1.997,1.9023,2.0965
0.8613,1.9714,1.8764,2.0711
0.8815,1.9564,1.8556,2.0627
0.9021,1.9651,1.8562,2.0804
0.9232,2.0008,1.8854,2.1233
0.9448,2.0558,1.9374,2.1815
0.9669,2.1156,1.9955,2.2428
0.9896,2.1661,2.0432,2.2965
1.0128,2.199,2.0736,2.332
1.0365,2.2111,2.0845,2.3454
1.0607,2.2026,2.0675,2.3464
1.0856,2.1759,2.0201,2.3438
1.111,2.1358,1.9576,2.3302
1.137,2.0879,1.8963,2.2989
1.1636,2.0389,1.844,2.2543
1.1908,1.9953,1.8052,2.2053
1.2187,1.9635,1.7835,2.1618
1.2473,1.948,1.7795,2.1323
1.2765,1.9481,1.7897,2.1206
1.3063,1.959,1.8073,2.1234
1.3369,1.9741,1.8256,2.1348
1.3682,1.9898,1.8402,2.1515
1.4003,2.0049,1.8511,2.1715
1.433,2.0194,1.8619,2.1901
1.4666,2.0332,1.8762,2.2033
1.5009,2.047,1.8923,2.2142
1.5361,2.0617,1.906,2.2302
1.572,2.0774,1.9151,2.2535
1.6088,2.0906,1.9179,2.2788
1.6465,2.0956,1.9114,2.2974
1.685,2.0886,1.8958,2.301
1.7245,2.0713,1.875,2.2882
1.7649,2.0499,1.8522,2.2686
1.8062,2.0307,1.8281,2.2557
1.8485,2.0166,1.804,2.2542
1.8917,2.0057,1.7803,2.2596
1.936,1.9926,1.7533,2.2644
1.9813,1.9707,1.7183,2.2602
2.0277,1.9356,1.6731,2.2392
2.0752,1.8872,1.6199,2.1986
2.1238,1.831,1.5626,2.1456
2.1735,1.7759,1.508,2.0914
2.2244,1.7291,1.4631,2.0435
2.2765,1.6933,1.4294,2.0058
2.3298,1.6662,1.4021,1.98
2.3843,1.6437,1.3766,1.9628
2.4401,1.6228,1.352,1.9477
2.4973,1.6017,1.33,1.9289
2.5557,1.5789,1.3091,1.9043
2.6155,1.5514,1.2832,1.8756
2.6768,1.5161,1.2461,1.8445
2.7395,1.472,1.199,1.8071
2.8036,1.4219,1.1491,1.7595
2.8692,1.371,1.1013,1.7068
2.9364,1.323,1.0557,1.658
3.0051,1.278,1.0112,1.6152
3.0755,1.2335,0.9672,1.5731
3.1475,1.1872,0.9235,1.5262
3.2212,1.1404,0.8808,1.4763
3.2966,1.0968,0.8408,1.4308
3.3738,1.0606,0.8055,1.3964
3.4528,1.0329,0.7769,1.3733
3.5336,1.0116,0.7553,1.3549
3.6163,0.9924,0.739,1.3326
3.701,0.9715,0.7251,1.3016
3.7876,0.9488,0.7117,1.2648
3.8763,0.927,0.6991,1.2292
3.967,0.9099,0.6896,1.2004
4.0599,0.8997,0.6846,1.1823
4.155,0.8963,0.6829,1.1764
4.2522,0.8984,0.6837,1.1806
4.3518,0.9047,0.6874,1.1907
4.4537,0.9143,0.6947,1.2033
4.5579,0.9272,0.7064,1.217
4.6647,0.943,0.7218,1.232
4.7739,0.9613,0.7401,1.2486
4.8856,0.9808,0.7601,1.2656
5.0,1.0001,0.7805,1.2815
