# hvsrpy output version 0.5.2
# File Name (),NA
# Method (),geometric-mean
# Azimuth (),0
# Window Length (s),1200.0
# Total Number of Windows (),72
# Frequency Domain Window Rejection Performed (),True
# Lower frequency limit for peaks (Hz),0.1
# Upper frequency limit for peaks (Hz),5.0
# Number of Standard Deviations Used for Rejection () [n],2
# Number of Accepted Windows (),49
# Number of Rejected Windows (),23
# Distribution of f0 (),lognormal
# Median f0 (Hz) [LMf0],1.2771
# Lognormal standard deviation f0 () [SigmaLNf0],0.0505
# 68 % Confidence Interval f0 (Hz),1.2141,to,1.3433
# Median T0 (s) [LMT0],0.7831
# Lognormal standard deviation T0 () [SigmaLNT0],0.0505
# 68 % Confidence Interval T0 (s),0.7445,to,0.8236
# Median Curve Distribution (),lognormal
# Median Curve Peak Frequency (Hz) [f0mc],1.2765
# Median Curve Peak Amplitude (),2.3699
# Frequency (Hz),Median Curve,1 STD Below Median Curve,1 STD Above Median Curve
0.05,1.8595,1.1812,2.9273
0.0512,1.9491,1.2839,2.959
0.0524,2.0515,1.3931,3.021
0.0536,2.1626,1.506,3.1057
0.0548,2.2658,1.6196,3.1699
0.0561,2.3403,1.7198,3.1847
0.0574,2.3768,1.7994,3.1394
0.0588,2.3832,1.8621,3.0502
0.0602,2.3744,1.9078,2.955
0.0616,2.3618,1.9399,2.8754
0.063,2.3546,1.9657,2.8203
0.0645,2.3585,1.9803,2.8089
0.066,2.3697,1.9798,2.8363
0.0675,2.3755,1.9712,2.8629
0.0691,2.3622,1.9528,2.8576
0.0707,2.3176,1.9154,2.8042
0.0724,2.2378,1.8579,2.6953
0.0741,2.1322,1.7778,2.5572
0.0758,2.0159,1.6709,2.4322
0.0776,1.9005,1.5516,2.3278
0.0794,1.7908,1.4426,2.2232
0.0813,1.6885,1.3537,2.1062
0.0832,1.5957,1.2828,1.985
0.0851,1.5163,1.2266,1.8744
0.0871,1.4504,1.1871,1.7722
0.0892,1.3921,1.1631,1.666
0.0913,1.3345,1.1412,1.5605
0.0934,1.2774,1.1058,1.4757
0.0956,1.2257,1.0594,1.418
0.0978,1.1838,1.0187,1.3757
0.1001,1.1539,0.9934,1.3404
0.1025,1.1371,0.9831,1.3153
0.1049,1.1341,0.9845,1.3065
0.1073,1.1435,0.9955,1.3134
0.1098,1.1604,1.0114,1.3313
0.1124,1.1778,1.0233,1.3557
0.115,1.1895,1.0275,1.377
0.1177,1.193,1.0263,1.3867
0.1205,1.1878,1.021,1.3819
0.1233,1.1743,1.0115,1.3633
0.1262,1.1558,0.9974,1.3393
0.1291,1.1397,0.9815,1.3233
0.1322,1.1337,0.9732,1.3207
0.1352,1.142,0.9839,1.3256
0.1384,1.1637,1.0167,1.3318
0.1417,1.1934,1.0624,1.3406
0.145,1.2245,1.1066,1.355
0.1484,1.2508,1.1397,1.3727
0.1518,1.2692,1.1579,1.3912
0.1554,1.28,1.1648,1.4064
0.159,1.284,1.1671,1.4126
0.1628,1.2811,1.1651,1.4087
0.1666,1.271,1.1525,1.4015
0.1705,1.2556,1.1291,1.3963
0.1745,1.239,1.1052,1.3889
0.1785,1.2247,1.0894,1.3769
0.1827,1.2156,1.0837,1.3635
0.187,1.2131,1.0883,1.3522
0.1914,1.2179,1.1017,1.3463
0.1959,1.2295,1.1197,1.3501
0.2004,1.247,1.1407,1.3633
0.2051,1.2691,1.1657,1.3817
0.2099,1.2931,1.1938,1.4006
0.2149,1.3151,1.2184,1.4194
0.2199,1.3314,1.2307,1.4403
0.225,1.3401,1.2299,1.4601
0.2303,1.3422,1.2232,1.4726
0.2357,1.3401,1.2172,1.4753
0.2412,1.3367,1.2161,1.4692
0.2469,1.3349,1.2221,1.4582
0.2526,1.3386,1.2363,1.4493
0.2585,1.3522,1.2581,1.4532
0.2646,1.3789,1.2847,1.4799
0.2708,1.4182,1.3134,1.5314
0.2771,1.4658,1.3454,1.597
0.2836,1.5164,1.3863,1.6588
0.2903,1.5674,1.4403,1.7057
0.2971,1.6191,1.5044,1.7426
0.304,1.6719,1.5657,1.7853
0.3111,1.7217,1.615,1.8353
0.3184,1.7594,1.6512,1.8747
0.3259,1.7763,1.6648,1.8953
0.3335,1.7706,1.6502,1.8998
0.3413,1.749,1.6196,1.8888
0.3493,1.7231,1.5906,1.8667
0.3575,1.7032,1.5747,1.8422
0.3658,1.6953,1.576,1.8237
0.3744,1.6999,1.5904,1.817
0.3832,1.7131,1.6075,1.8258
0.3921,1.7294,1.619,1.8474
0.4013,1.7463,1.6288,1.8722
0.4107,1.7654,1.6453,1.8944
0.4203,1.7893,1.6706,1.9164
0.4302,1.8159,1.699,1.9409
0.4402,1.838,1.7216,1.9624
0.4506,1.8474,1.7317,1.9708
0.4611,1.8412,1.7256,1.9645
0.4719,1.8246,1.7057,1.9519
0.4829,1.8079,1.6843,1.9406
0.4942,1.8004,1.675,1.9352
0.5058,1.8062,1.683,1.9385
0.5177,1.8222,1.7043,1.9482
0.5298,1.8408,1.7297,1.959
0.5422,1.8546,1.7486,1.967
0.5549,1.861,1.7555,1.9727
0.5679,1.8627,1.7524,1.9799
0.5812,1.8656,1.7482,1.9908
0.5948,1.8747,1.7529,2.0049
0.6087,1.8915,1.7702,2.021
0.6229,1.9142,1.7961,2.04
0.6375,1.9397,1.8236,2.0632
0.6525,1.9655,1.8495,2.0887
0.6677,1.9889,1.8753,2.1093
0.6834,2.0061,1.8986,2.1198
0.6994,2.0144,1.911,2.1233
0.7157,2.0158,1.9108,2.1266
0.7325,2.0182,1.9102,2.1324
0.7496,2.0293,1.9198,2.145
0.7672,2.0496,1.9396,2.1659
0.7851,2.0724,1.9638,2.187
0.8035,2.0902,1.9873,2.1985
0.8223,2.1016,2.006,2.2017
0.8416,2.1114,2.0182,2.2088
0.8613,2.1257,2.0291,2.227
0.8815,2.1476,2.0474,2.2528
0.9021,2.1753,2.0766,2.2786
0.9232,2.2022,2.1102,2.2982
0.9448,2.2189,2.133,2.3083
0.9669,2.2176,2.1307,2.3079
0.9896,2.1982,2.1025,2.2981
1.0128,2.1708,2.0613,2.2862
1.0365,2.1501,2.026,2.2819
1.0607,2.1467,2.0126,2.2897
1.0856,2.1627,2.027,2.3076
1.111,2.1931,2.0625,2.332
1.137,2.2303,2.1058,2.3621
1.1636,2.2696,2.1477,2.3983
1.1908,2.3086,2.1861,2.4379
1.2187,2.343,2.2161,2.4771
1.2473,2.3654,2.2317,2.5071
1.2765,2.3699,2.2334,2.5147
1.3063,2.3568,2.2242,2.4972
1.3369,2.3313,2.2039,2.466
1.3682,2.2979,2.1716,2.4315
1.4003,2.2579,2.1316,2.3916
1.433,2.2123,2.0879,2.3442
1.4666,2.1649,2.0355,2.3024
1.5009,2.1203,1.9666,2.286
1.5361,2.0801,1.8863,2.2938
1.572,2.0398,1.8068,2.3029
1.6088,1.9923,1.7357,2.2868
1.6465,1.9349,1.6735,2.2372
1.685,1.8724,1.6163,2.169
1.7245,1.8125,1.5641,2.1003
1.7649,1.7608,1.521,2.0384
1.8062,1.7189,1.4869,1.987
1.8485,1.6849,1.4572,1.9481
1.8917,1.6564,1.4301,1.9185
1.936,1.6319,1.4069,1.8929
1.9813,1.6102,1.3888,1.8671
2.0277,1.5899,1.376,1.8371
2.0752,1.5687,1.3659,1.8016
2.1238,1.5447,1.3534,1.7631
2.1735,1.5178,1.3357,1.7247
2.2244,1.4899,1.3152,1.6877
2.2765,1.4644,1.2964,1.6542
2.3298,1.4443,1.2816,1.6277
2.3843,1.4302,1.2695,1.6112
2.4401,1.4204,1.2562,1.6061
2.4973,1.4122,1.2371,1.6122
2.5557,1.4036,1.2114,1.6262
2.6155,1.3935,1.1843,1.6396
2.6768,1.3826,1.1621,1.645
2.7395,1.3727,1.1482,1.6409
2.8036,1.3661,1.1436,1.632
2.8692,1.3646,1.147,1.6235
2.9364,1.3683,1.1567,1.6187
3.0051,1.3765,1.171,1.6181
3.0755,1.3866,1.1864,1.6206
3.1475,1.3945,1.1975,1.624
3.2212,1.3962,1.1998,1.6247
3.2966,1.3904,1.1935,1.6198
3.3738,1.3802,1.1826,1.6107
3.4528,1.3709,1.1727,1.6026
3.5336,1.3675,1.1687,1.6001
3.6163,1.3718,1.1726,1.6049
3.701,1.3827,1.1821,1.6173
3.7876,1.397,1.1919,1.6374
3.8763,1.4115,1.1983,1.6625
3.967,1.4237,1.2007,1.6881
4.0599,1.433,1.2002,1.711
4.155,1.4398,1.1985,1.7297
4.2522,1.445,1.1981,1.7429
4.3518,1.4489,1.2003,1.749
4.4537,1.4507,1.2048,1.7467
4.5579,1.4489,1.2092,1.7361
4.6647,1.4424,1.2106,1.7187
4.7739,1.4312,1.2065,1.6979
4.8856,1.4166,1.1957,1.6782
5.0,1.4008,1.1798,1.6633
