# hvsrpy output version 0.5.2
# File Name (),NA
# Method (),geometric-mean
# Azimuth (),0
# Window Length (s),1200.0
# Total Number of Windows (),72
# Frequency Domain Window Rejection Performed (),True
# Lower frequency limit for peaks (Hz),0.1
# Upper frequency limit for peaks (Hz),5.0
# Number of Standard Deviations Used for Rejection () [n],2
# Number of Accepted Windows (),62
# Number of Rejected Windows (),10
# Distribution of f0 (),lognormal
# Median f0 (Hz) [LMf0],0.1804
# Lognormal standard deviation f0 () [SigmaLNf0],0.493
# 68 % Confidence Interval f0 (Hz),0.1102,to,0.2954
# Median T0 (s) [LMT0],5.5428
# Lognormal standard deviation T0 () [SigmaLNT0],0.493
# 68 % Confidence Interval T0 (s),3.3855,to,9.0746
# Median Curve Distribution (),lognormal
# Median Curve Peak Frequency (Hz) [f0mc],0.1262
# Median Curve Peak Amplitude (),0.9871
# Frequency (Hz),Median Curve,1 STD Below Median Curve,1 STD Above Median Curve
0.05,1.0055,0.6943,1.4561
0.0512,0.9821,0.6857,1.4068
0.0524,0.965,0.6833,1.363
0.0536,0.9603,0.6852,1.3458
0.0548,0.9637,0.6838,1.3582
0.0561,0.9662,0.6735,1.386
0.0574,0.9617,0.657,1.4077
0.0588,0.9515,0.6413,1.4119
0.0602,0.9414,0.63,1.4066
0.0616,0.9366,0.6237,1.4063
0.063,0.9399,0.6244,1.415
0.0645,0.9513,0.6339,1.4276
0.066,0.9677,0.6512,1.4381
0.0675,0.9835,0.6703,1.4431
0.0691,0.9923,0.6821,1.4436
0.0707,0.9905,0.6802,1.4423
0.0724,0.9805,0.668,1.4392
0.0741,0.9699,0.6555,1.4353
0.0758,0.9655,0.6493,1.4355
0.0776,0.9683,0.6496,1.4435
0.0794,0.9742,0.6524,1.4548
0.0813,0.9776,0.6553,1.4585
0.0832,0.9769,0.6588,1.4484
0.0851,0.9742,0.6646,1.4281
0.0871,0.9733,0.6733,1.4069
0.0892,0.9763,0.6837,1.3941
0.0913,0.9837,0.6944,1.3935
0.0934,0.9935,0.7049,1.4002
0.0956,1.0026,0.7156,1.4048
0.0978,1.0088,0.7256,1.4023
0.1001,1.0112,0.7332,1.3947
0.1025,1.0107,0.7366,1.3867
0.1049,1.0088,0.7356,1.3834
0.1073,1.0067,0.7308,1.3867
0.1098,1.0039,0.7244,1.3915
0.1124,0.9989,0.719,1.3879
0.115,0.9918,0.7173,1.3713
0.1177,0.9852,0.7206,1.3471
0.1205,0.9825,0.7276,1.3267
0.1233,0.9842,0.7351,1.3178
0.1262,0.9871,0.7398,1.317
0.1291,0.9857,0.7413,1.3107
0.1322,0.9775,0.7425,1.2868
0.1352,0.9647,0.7468,1.2462
0.1384,0.9522,0.755,1.2009
0.1417,0.9438,0.7646,1.1649
0.145,0.9401,0.7722,1.1444
0.1484,0.9392,0.7776,1.1343
0.1518,0.9378,0.7802,1.1273
0.1554,0.9347,0.7776,1.1235
0.159,0.9314,0.7709,1.1252
0.1628,0.9305,0.7658,1.1306
0.1666,0.9334,0.765,1.1389
0.1705,0.9395,0.767,1.1509
0.1745,0.9471,0.7706,1.1639
0.1785,0.9538,0.777,1.1707
0.1827,0.9581,0.7863,1.1673
0.187,0.9592,0.7959,1.1561
0.1914,0.9571,0.8029,1.1408
0.1959,0.952,0.8074,1.1226
0.2004,0.9457,0.8106,1.1034
0.2051,0.9403,0.8142,1.0858
0.2099,0.9369,0.82,1.0704
0.2149,0.9355,0.8274,1.0576
0.2199,0.9352,0.8326,1.0504
0.225,0.9354,0.8338,1.0494
0.2303,0.9359,0.8333,1.0511
0.2357,0.9373,0.8331,1.0545
0.2412,0.9401,0.8341,1.0596
0.2469,0.9437,0.8379,1.0629
0.2526,0.9459,0.8434,1.0609
0.2585,0.9449,0.8461,1.0552
0.2646,0.9406,0.843,1.0494
0.2708,0.9349,0.8359,1.0455
0.2771,0.9301,0.8292,1.0434
0.2836,0.928,0.826,1.0426
0.2903,0.9286,0.8275,1.0421
0.2971,0.9309,0.8325,1.041
0.304,0.9338,0.8379,1.0406
0.3111,0.9365,0.8405,1.0435
0.3184,0.9391,0.8406,1.0491
0.3259,0.9415,0.8405,1.0545
0.3335,0.9437,0.8415,1.0582
0.3413,0.9454,0.8437,1.0594
0.3493,0.946,0.8468,1.0568
0.3575,0.945,0.8495,1.0512
0.3658,0.943,0.8507,1.0452
0.3744,0.9413,0.8511,1.0411
0.3832,0.9413,0.8522,1.0396
0.3921,0.9429,0.8539,1.0412
0.4013,0.9446,0.855,1.0435
0.4107,0.9443,0.8554,1.0423
0.4203,0.9414,0.8553,1.0361
0.4302,0.9373,0.8545,1.0282
0.4402,0.9341,0.8531,1.0228
0.4506,0.9323,0.8515,1.0208
0.4611,0.9316,0.8498,1.0212
0.4719,0.9313,0.8472,1.0238
0.4829,0.9315,0.8447,1.0274
0.4942,0.9323,0.8448,1.029
0.5058,0.9334,0.8478,1.0276
0.5177,0.9343,0.8519,1.0247
0.5298,0.9351,0.8559,1.0215
0.5422,0.9356,0.859,1.0189
0.5549,0.9356,0.8611,1.0167
0.5679,0.9349,0.8628,1.0131
0.5812,0.9332,0.8636,1.0083
0.5948,0.9311,0.8624,1.0053
0.6087,0.9298,0.861,1.0042
0.6229,0.9302,0.8633,1.0024
0.6375,0.9323,0.8698,0.9992
0.6525,0.9347,0.8764,0.9968
0.6677,0.9358,0.8801,0.9951
0.6834,0.9345,0.8808,0.9915
0.6994,0.9308,0.8788,0.9858
0.7157,0.9257,0.8743,0.9802
0.7325,0.9213,0.8692,0.9766
0.7496,0.9187,0.8658,0.9748
0.7672,0.9183,0.8645,0.9754
0.7851,0.9195,0.8637,0.9789
0.8035,0.9216,0.8628,0.9843
0.8223,0.9239,0.8634,0.9887
0.8416,0.9263,0.8673,0.9894
0.8613,0.9289,0.8743,0.9868
0.8815,0.9312,0.8816,0.9837
0.9021,0.9328,0.8863,0.9818
0.9232,0.9329,0.8886,0.9795
0.9448,0.9316,0.8898,0.9754
0.9669,0.9295,0.8889,0.972
0.9896,0.9274,0.8849,0.9719
1.0128,0.9254,0.8795,0.9738
1.0365,0.9237,0.8754,0.9746
1.0607,0.9222,0.874,0.9731
1.0856,0.9213,0.8745,0.9706
1.111,0.9212,0.8753,0.9695
1.137,0.9217,0.8748,0.9712
1.1636,0.9224,0.8731,0.9745
1.1908,0.923,0.872,0.977
1.2187,0.9235,0.873,0.9771
1.2473,0.9242,0.8768,0.9743
1.2765,0.925,0.8817,0.9704
1.3063,0.9254,0.8841,0.9687
1.3369,0.9254,0.8826,0.9702
1.3682,0.9248,0.8795,0.9725
1.4003,0.924,0.8764,0.9742
1.433,0.9232,0.8728,0.9766
1.4666,0.9227,0.869,0.9797
1.5009,0.9224,0.8669,0.9814
1.5361,0.9221,0.8669,0.9807
1.572,0.9214,0.8673,0.979
1.6088,0.9205,0.8662,0.9783
1.6465,0.9197,0.863,0.9802
1.685,0.9193,0.8578,0.9852
1.7245,0.919,0.8511,0.9923
1.7649,0.9182,0.844,0.999
1.8062,0.9165,0.8373,1.0033
1.8485,0.9143,0.832,1.0047
1.8917,0.9128,0.8304,1.0033
1.936,0.913,0.8344,0.999
1.9813,0.9152,0.8444,0.992
2.0277,0.9183,0.8576,0.9833
2.0752,0.9212,0.8704,0.975
2.1238,0.9234,0.8799,0.969
2.1735,0.9251,0.8856,0.9663
2.2244,0.9265,0.8878,0.9669
2.2765,0.9274,0.8863,0.9704
2.3298,0.9273,0.881,0.9761
2.3843,0.9263,0.8727,0.9831
2.4401,0.925,0.8639,0.9903
2.4973,0.9243,0.8572,0.9965
2.5557,0.9245,0.8542,1.0005
2.6155,0.9253,0.8542,1.0022
2.6768,0.9258,0.8551,1.0024
2.7395,0.9256,0.8547,1.0024
2.8036,0.9245,0.8521,1.0031
2.8692,0.9229,0.8486,1.0039
2.9364,0.9212,0.8457,1.0035
3.0051,0.9196,0.8446,1.0013
3.0755,0.9182,0.8455,0.9971
3.1475,0.9168,0.8481,0.991
3.2212,0.9157,0.8524,0.9836
3.2966,0.9153,0.8582,0.9761
3.3738,0.9159,0.8647,0.9701
3.4528,0.9174,0.8705,0.9668
3.5336,0.9191,0.874,0.9666
3.6163,0.9205,0.8747,0.9688
3.701,0.9214,0.874,0.9713
3.7876,0.9217,0.8742,0.9718
3.8763,0.9216,0.8767,0.9688
3.967,0.9212,0.8812,0.963
4.0599,0.9206,0.8862,0.9564
4.155,0.9203,0.8902,0.9515
4.2522,0.9206,0.892,0.9501
4.3518,0.9215,0.8918,0.9522
4.4537,0.9228,0.8904,0.9564
4.5579,0.9239,0.8888,0.9604
4.6647,0.9247,0.8879,0.9631
4.7739,0.9252,0.8881,0.9637
4.8856,0.9253,0.8897,0.9622
5.0,0.9251,0.8923,0.9591
