# hvsrpy output version 0.5.2
# File Name (),NA
# Method (),geometric-mean
# Azimuth (),0
# Window Length (s),1200.0
# Total Number of Windows (),72
# Frequency Domain Window Rejection Performed (),True
# Lower frequency limit for peaks (Hz),0.1
# Upper frequency limit for peaks (Hz),5.0
# Number of Standard Deviations Used for Rejection () [n],2
# Number of Accepted Windows (),62
# Number of Rejected Windows (),10
# Distribution of f0 (),lognormal
# Median f0 (Hz) [LMf0],1.3698
# Lognormal standard deviation f0 () [SigmaLNf0],0.1093
# 68 % Confidence Interval f0 (Hz),1.2279,to,1.528
# Median T0 (s) [LMT0],0.7301
# Lognormal standard deviation T0 () [SigmaLNT0],0.1093
# 68 % Confidence Interval T0 (s),0.6545,to,0.8144
# Median Curve Distribution (),lognormal
# Median Curve Peak Frequency (Hz) [f0mc],1.2765
# Median Curve Peak Amplitude (),2.5018
# Frequency (Hz),Median Curve,1 STD Below Median Curve,1 STD Above Median Curve
0.05,1.5283,0.9919,2.3547
0.0512,1.6158,1.0495,2.4877
0.0524,1.7122,1.0941,2.6795
0.0536,1.8183,1.1547,2.8632
0.0548,1.9255,1.2451,2.9776
0.0561,2.0194,1.3493,3.0223
0.0574,2.0918,1.4368,3.0455
0.0588,2.1465,1.4917,3.0885
0.0602,2.1901,1.5236,3.1483
0.0616,2.2256,1.5463,3.2032
0.063,2.2531,1.5619,3.2503
0.0645,2.2736,1.5654,3.3022
0.066,2.2862,1.5564,3.3582
0.0675,2.287,1.5401,3.396
0.0691,2.2687,1.5208,3.3845
0.0707,2.2224,1.495,3.3038
0.0724,2.1425,1.4544,3.1563
0.0741,2.0304,1.3937,2.9581
0.0758,1.8931,1.3137,2.7281
0.0776,1.7403,1.2181,2.4863
0.0794,1.5832,1.1126,2.2529
0.0813,1.4355,1.0104,2.0395
0.0832,1.3055,0.9259,1.8407
0.0851,1.1904,0.8613,1.6452
0.0871,1.0887,0.8102,1.463
0.0892,1.0057,0.7692,1.315
0.0913,0.9466,0.7417,1.2081
0.0934,0.9138,0.7317,1.1414
0.0956,0.9076,0.7394,1.1142
0.0978,0.9242,0.764,1.1179
0.1001,0.9563,0.8047,1.1365
0.1025,0.9949,0.8542,1.1589
0.1049,1.0304,0.8971,1.1836
0.1073,1.0552,0.9203,1.2099
0.1098,1.0663,0.9263,1.2275
0.1124,1.0658,0.9261,1.2265
0.115,1.0592,0.9264,1.2111
0.1177,1.0529,0.9262,1.197
0.1205,1.0511,0.9242,1.1954
0.1233,1.0547,0.926,1.2013
0.1262,1.0628,0.936,1.2069
0.1291,1.0748,0.9514,1.2141
0.1322,1.0913,0.9706,1.2269
0.1352,1.1146,0.9983,1.2444
0.1384,1.1461,1.0348,1.2695
0.1417,1.1839,1.0733,1.3058
0.145,1.2223,1.1081,1.3482
0.1484,1.2566,1.1355,1.3905
0.1518,1.2859,1.1545,1.4322
0.1554,1.3118,1.1688,1.4723
0.159,1.3348,1.1834,1.5056
0.1628,1.3532,1.199,1.5274
0.1666,1.3639,1.2111,1.5361
0.1705,1.3639,1.2138,1.5326
0.1745,1.352,1.2045,1.5174
0.1785,1.3295,1.186,1.4904
0.1827,1.3004,1.1632,1.4539
0.187,1.2687,1.1389,1.4133
0.1914,1.2384,1.1158,1.3744
0.1959,1.2147,1.1005,1.3408
0.2004,1.2031,1.0989,1.3171
0.2051,1.206,1.11,1.3103
0.2099,1.2223,1.1301,1.3222
0.2149,1.2486,1.1578,1.3466
0.2199,1.2796,1.1876,1.3786
0.225,1.3086,1.2083,1.4172
0.2303,1.3292,1.2153,1.4537
0.2357,1.3369,1.2133,1.4731
0.2412,1.3329,1.2088,1.4698
0.2469,1.3236,1.2073,1.4512
0.2526,1.3179,1.2133,1.4315
0.2585,1.3222,1.2256,1.4265
0.2646,1.3393,1.2409,1.4454
0.2708,1.3678,1.2617,1.4829
0.2771,1.4041,1.2905,1.5277
0.2836,1.4439,1.3247,1.5737
0.2903,1.4845,1.3609,1.6194
0.2971,1.526,1.3995,1.6639
0.304,1.5684,1.442,1.7059
0.3111,1.6088,1.4846,1.7434
0.3184,1.641,1.518,1.774
0.3259,1.6582,1.5336,1.7929
0.3335,1.6575,1.5313,1.7942
0.3413,1.6426,1.5158,1.7799
0.3493,1.6218,1.4936,1.7611
0.3575,1.6053,1.4747,1.7475
0.3658,1.6009,1.469,1.7448
0.3744,1.6122,1.4811,1.755
0.3832,1.6359,1.5087,1.774
0.3921,1.6628,1.5422,1.7929
0.4013,1.6824,1.5689,1.8041
0.4107,1.6897,1.5784,1.8088
0.4203,1.688,1.5691,1.8158
0.4302,1.684,1.5517,1.8277
0.4402,1.6829,1.5385,1.8408
0.4506,1.6855,1.5341,1.8518
0.4611,1.6899,1.5387,1.8559
0.4719,1.694,1.5537,1.8468
0.4829,1.6974,1.5766,1.8274
0.4942,1.7026,1.5908,1.8223
0.5058,1.713,1.5844,1.8521
0.5177,1.7294,1.5787,1.8945
0.5298,1.7491,1.5919,1.9219
0.5422,1.7673,1.6208,1.927
0.5549,1.7798,1.646,1.9243
0.5679,1.7858,1.6448,1.9389
0.5812,1.788,1.6248,1.9677
0.5948,1.7915,1.6156,1.9865
0.6087,1.8024,1.63,1.9929
0.6229,1.8253,1.6632,2.0032
0.6375,1.8603,1.7072,2.0273
0.6525,1.9012,1.7558,2.0586
0.6677,1.9364,1.8,2.083
0.6834,1.9547,1.827,2.0914
0.6994,1.9538,1.8318,2.084
0.7157,1.9436,1.8232,2.072
0.7325,1.9395,1.8148,2.0728
0.7496,1.9515,1.8171,2.0958
0.7672,1.9778,1.8339,2.133
0.7851,2.0087,1.8613,2.1678
0.8035,2.0356,1.8906,2.1917
0.8223,2.0572,1.9169,2.2077
0.8416,2.0784,1.9435,2.2225
0.8613,2.1037,1.9738,2.2421
0.8815,2.1339,2.0046,2.2715
0.9021,2.166,2.0296,2.3116
0.9232,2.1945,2.0457,2.3542
0.9448,2.2132,2.0521,2.387
0.9669,2.2176,2.047,2.4024
0.9896,2.2085,2.0313,2.4011
1.0128,2.1942,2.0123,2.3926
1.0365,2.1866,1.9966,2.3947
1.0607,2.1943,1.9882,2.4218
1.0856,2.2192,1.996,2.4673
1.111,2.2572,2.0283,2.5119
1.137,2.3027,2.077,2.5528
1.1636,2.352,2.1217,2.6074
1.1908,2.4033,2.1559,2.6791
1.2187,2.4515,2.1894,2.7449
1.2473,2.4872,2.2225,2.7834
1.2765,2.5018,2.2398,2.7946
1.3063,2.4941,2.2307,2.7886
1.3369,2.471,2.2007,2.7745
1.3682,2.4424,2.1629,2.7581
1.4003,2.4159,2.128,2.7426
1.433,2.3953,2.1,2.732
1.4666,2.3819,2.0756,2.7335
1.5009,2.3741,2.0498,2.7496
1.5361,2.366,2.0198,2.7716
1.572,2.3493,1.9847,2.781
1.6088,2.3173,1.9467,2.7585
1.6465,2.27,1.9085,2.6999
1.685,2.2131,1.8658,2.625
1.7245,2.1542,1.8085,2.566
1.7649,2.0998,1.7364,2.5393
1.8062,2.0554,1.6674,2.5337
1.8485,2.0236,1.6206,2.5268
1.8917,2.0017,1.6011,2.5026
1.936,1.982,1.5985,2.4576
1.9813,1.9573,1.5948,2.4022
2.0277,1.9253,1.5789,2.3476
2.0752,1.8888,1.5557,2.2932
2.1238,1.8525,1.537,2.2327
2.1735,1.8187,1.5287,2.1636
2.2244,1.7858,1.5244,2.0919
2.2765,1.7511,1.5107,2.0297
2.3298,1.7137,1.4811,1.9829
2.3843,1.6747,1.4419,1.9451
2.4401,1.6343,1.4003,1.9075
2.4973,1.5913,1.3539,1.8704
2.5557,1.5447,1.2963,1.8405
2.6155,1.4963,1.232,1.8174
2.6768,1.4509,1.1746,1.7923
2.7395,1.4127,1.133,1.7616
2.8036,1.3832,1.1064,1.7293
2.8692,1.3605,1.0898,1.6985
2.9364,1.3405,1.0789,1.6655
3.0051,1.3195,1.0707,1.6262
3.0755,1.2958,1.0618,1.5814
3.1475,1.269,1.0488,1.5355
3.2212,1.2393,1.0303,1.4907
3.2966,1.2082,1.0093,1.4463
3.3738,1.1784,0.9893,1.4036
3.4528,1.1521,0.9713,1.3665
3.5336,1.1298,0.9538,1.3383
3.6163,1.1105,0.9354,1.3184
3.701,1.0929,0.9162,1.3038
3.7876,1.0768,0.898,1.2912
3.8763,1.063,0.8826,1.2802
3.967,1.0531,0.8713,1.2729
4.0599,1.0478,0.8641,1.2707
4.155,1.0465,0.8612,1.2717
4.2522,1.0476,0.863,1.2716
4.3518,1.0496,0.8694,1.2672
4.4537,1.052,0.8786,1.2596
4.5579,1.0548,0.8877,1.2534
4.6647,1.0582,0.8952,1.2509
4.7739,1.0622,0.9019,1.251
4.8856,1.0659,0.9083,1.2509
5.0,1.0689,0.9149,1.2489
