# hvsrpy output version 0.5.2
# File Name (),NA
# Method (),geometric-mean
# Azimuth (),0
# Window Length (s),1200.0
# Total Number of Windows (),72
# Frequency Domain Window Rejection Performed (),True
# Lower frequency limit for peaks (Hz),0.1
# Upper frequency limit for peaks (Hz),5.0
# Number of Standard Deviations Used for Rejection () [n],2
# Number of Accepted Windows (),63
# Number of Rejected Windows (),9
# Distribution of f0 (),lognormal
# Median f0 (Hz) [LMf0],0.5402
# Lognormal standard deviation f0 () [SigmaLNf0],0.4433
# 68 % Confidence Interval f0 (Hz),0.3468,to,0.8415
# Median T0 (s) [LMT0],1.8512
# Lognormal standard deviation T0 () [SigmaLNT0],0.4433
# 68 % Confidence Interval T0 (s),1.1883,to,2.8838
# Median Curve Distribution (),lognormal
# Median Curve Peak Frequency (Hz) [f0mc],0.4302
# Median Curve Peak Amplitude (),2.2922
# Frequency (Hz),Median Curve,1 STD Below Median Curve,1 STD Above Median Curve
0.05,1.4565,1.0404,2.0392
0.0512,1.4822,1.0708,2.0517
0.0524,1.5101,1.0977,2.0774
0.0536,1.5383,1.1245,2.1042
0.0548,1.5675,1.1556,2.1264
0.0561,1.5992,1.1896,2.1499
0.0574,1.6306,1.2233,2.1735
0.0588,1.6559,1.248,2.1971
0.0602,1.6699,1.2544,2.223
0.0616,1.671,1.2497,2.2342
0.063,1.6637,1.2529,2.2091
0.0645,1.6553,1.2729,2.1526
0.066,1.6491,1.3012,2.09
0.0675,1.6433,1.3224,2.042
0.0691,1.6336,1.3294,2.0075
0.0707,1.6169,1.3254,1.9726
0.0724,1.5929,1.3107,1.936
0.0741,1.5619,1.2848,1.8989
0.0758,1.5231,1.2555,1.8477
0.0776,1.4775,1.2252,1.7818
0.0794,1.4306,1.1899,1.7201
0.0813,1.3893,1.1526,1.6746
0.0832,1.3588,1.1225,1.6449
0.0851,1.3407,1.1075,1.6232
0.0871,1.3321,1.1057,1.6049
0.0892,1.3287,1.1047,1.5982
0.0913,1.3273,1.0989,1.6031
0.0934,1.3256,1.0965,1.6026
0.0956,1.3215,1.105,1.5806
0.0978,1.3126,1.1211,1.5369
0.1001,1.297,1.132,1.486
0.1025,1.2751,1.1274,1.4423
0.1049,1.2514,1.1095,1.4114
0.1073,1.233,1.0875,1.3979
0.1098,1.2261,1.0722,1.402
0.1124,1.2321,1.0725,1.4155
0.115,1.2473,1.0894,1.428
0.1177,1.2648,1.1147,1.435
0.1205,1.2764,1.1328,1.4382
0.1233,1.2745,1.1293,1.4384
0.1262,1.2557,1.1051,1.4268
0.1291,1.223,1.0721,1.3952
0.1322,1.1859,1.0415,1.3504
0.1352,1.1566,1.0201,1.3113
0.1384,1.1444,1.0115,1.2948
0.1417,1.1523,1.0181,1.3041
0.145,1.1735,1.0373,1.3276
0.1484,1.1937,1.0571,1.3479
0.1518,1.1986,1.0635,1.3507
0.1554,1.1848,1.0544,1.3313
0.159,1.1628,1.0401,1.2999
0.1628,1.1469,1.0321,1.2744
0.1666,1.144,1.0348,1.2647
0.1705,1.1506,1.0444,1.2677
0.1745,1.1594,1.0522,1.2776
0.1785,1.1681,1.0546,1.2939
0.1827,1.1803,1.0586,1.3159
0.187,1.1993,1.0725,1.3411
0.1914,1.2245,1.0965,1.3676
0.1959,1.2524,1.1243,1.3952
0.2004,1.2802,1.1503,1.4247
0.2051,1.3075,1.1747,1.4553
0.2099,1.3356,1.202,1.484
0.2149,1.3654,1.234,1.5109
0.2199,1.3964,1.2657,1.5406
0.225,1.4271,1.293,1.5751
0.2303,1.4566,1.3192,1.6082
0.2357,1.4855,1.3491,1.6357
0.2412,1.5152,1.3814,1.6621
0.2469,1.5475,1.4136,1.694
0.2526,1.5853,1.4502,1.733
0.2585,1.6338,1.4984,1.7813
0.2646,1.6965,1.5595,1.8455
0.2708,1.7714,1.6277,1.9277
0.2771,1.8485,1.6947,2.0162
0.2836,1.9142,1.7515,2.092
0.2903,1.9591,1.7903,2.1439
0.2971,1.984,1.8108,2.1737
0.304,1.9977,1.8231,2.189
0.3111,2.0097,1.8379,2.1976
0.3184,2.0245,1.8582,2.2058
0.3259,2.0413,1.8798,2.2167
0.3335,2.0565,1.8974,2.2289
0.3413,2.0674,1.9091,2.2388
0.3493,2.0729,1.9139,2.2452
0.3575,2.0735,1.9114,2.2493
0.3658,2.0722,1.9077,2.2509
0.3744,2.076,1.9129,2.2529
0.3832,2.0933,1.9337,2.2661
0.3921,2.1293,1.9717,2.2996
0.4013,2.1803,2.0227,2.35
0.4107,2.2334,2.0758,2.403
0.4203,2.2737,2.1175,2.4414
0.4302,2.2922,2.1412,2.4539
0.4402,2.2888,2.1484,2.4385
0.4506,2.2674,2.1375,2.4051
0.4611,2.2289,2.1005,2.3653
0.4719,2.1723,2.0402,2.313
0.4829,2.1,1.9709,2.2376
0.4942,2.0218,1.9044,2.1464
0.5058,1.9509,1.8473,2.0603
0.5177,1.8966,1.8009,1.9974
0.5298,1.8602,1.7644,1.9613
0.5422,1.8354,1.7357,1.9408
0.5549,1.8133,1.7103,1.9225
0.5679,1.7879,1.6821,1.9003
0.5812,1.7574,1.6495,1.8724
0.5948,1.7238,1.617,1.8377
0.6087,1.6913,1.5889,1.8003
0.6229,1.6651,1.5657,1.7709
0.6375,1.6511,1.5507,1.7579
0.6525,1.6541,1.5529,1.7619
0.6677,1.6775,1.5803,1.7808
0.6834,1.7211,1.6307,1.8166
0.6994,1.7797,1.6921,1.8719
0.7157,1.8439,1.754,1.9385
0.7325,1.9036,1.812,1.9998
0.7496,1.9524,1.8613,2.0478
0.7672,1.9895,1.8982,2.0852
0.7851,2.0164,1.9232,2.1141
0.8035,2.031,1.9369,2.1297
0.8223,2.028,1.9329,2.1279
0.8416,2.006,1.9039,2.1135
0.8613,1.9742,1.8584,2.0972
0.8815,1.9506,1.8198,2.0907
0.9021,1.9519,1.8104,2.1046
0.9232,1.9856,1.8401,2.1426
0.9448,2.0459,1.9029,2.1996
0.9669,2.1176,1.9785,2.2666
0.9896,2.1842,2.0426,2.3356
1.0128,2.2346,2.0813,2.3992
1.0365,2.2649,2.0943,2.4493
1.0607,2.2742,2.088,2.4771
1.0856,2.2627,2.0696,2.4738
1.111,2.2316,2.0442,2.4362
1.137,2.1842,2.0113,2.3719
1.1636,2.1254,1.968,2.2955
1.1908,2.0619,1.9163,2.2186
1.2187,2.0021,1.8646,2.1497
1.2473,1.9544,1.8238,2.0944
1.2765,1.9241,1.8023,2.0541
1.3063,1.911,1.7996,2.0293
1.3369,1.9121,1.8068,2.0236
1.3682,1.9237,1.8192,2.0342
1.4003,1.9426,1.8378,2.0533
1.433,1.9659,1.8602,2.0776
1.4666,1.9909,1.8804,2.1078
1.5009,2.0153,1.8953,2.143
1.5361,2.0384,1.9086,2.177
1.572,2.058,1.9216,2.204
1.6088,2.0692,1.9259,2.2232
1.6465,2.0652,1.9084,2.2349
1.685,2.0427,1.865,2.2375
1.7245,2.0066,1.8048,2.231
1.7649,1.968,1.7494,2.214
1.8062,1.9372,1.7203,2.1813
1.8485,1.9178,1.7213,2.1367
1.8917,1.9068,1.7313,2.1002
1.936,1.8968,1.7217,2.0897
1.9813,1.8795,1.6906,2.0895
2.0277,1.85,1.6523,2.0714
2.0752,1.8084,1.6117,2.0291
2.1238,1.7591,1.5669,1.9749
2.1735,1.7095,1.5201,1.9225
2.2244,1.6665,1.4781,1.8789
2.2765,1.6332,1.4465,1.8441
2.3298,1.6082,1.4255,1.8144
2.3843,1.5876,1.4095,1.7881
2.4401,1.5673,1.3909,1.7661
2.4973,1.5447,1.3651,1.7479
2.5557,1.5188,1.331,1.7332
2.6155,1.4908,1.2893,1.7237
2.6768,1.4613,1.2436,1.7172
2.7395,1.4308,1.1974,1.7097
2.8036,1.3998,1.1522,1.7005
2.8692,1.3687,1.11,1.6877
2.9364,1.3368,1.074,1.6638
3.0051,1.3014,1.0435,1.6231
3.0755,1.2607,1.0125,1.5697
3.1475,1.2153,0.976,1.5133
3.2212,1.1697,0.9357,1.4623
3.2966,1.129,0.8981,1.4191
3.3738,1.0962,0.8694,1.3822
3.4528,1.0713,0.851,1.3487
3.5336,1.0517,0.8399,1.3169
3.6163,1.0332,0.8295,1.2869
3.701,1.0134,0.8138,1.262
3.7876,0.9931,0.7924,1.2446
3.8763,0.9747,0.7708,1.2325
3.967,0.9602,0.7554,1.2206
4.0599,0.9507,0.7483,1.2077
4.155,0.9465,0.7478,1.1981
4.2522,0.9482,0.7513,1.1966
4.3518,0.9567,0.7591,1.2058
4.4537,0.9741,0.7736,1.2265
4.5579,1.003,0.7984,1.26
4.6647,1.0455,0.8358,1.3078
4.7739,1.1011,0.8843,1.371
4.8856,1.1646,0.9364,1.4485
5.0,1.2275,0.9822,1.534
