# hvsrpy output version 0.5.2
# File Name (),NA
# Method (),geometric-mean
# Azimuth (),0
# Window Length (s),1200.0
# Total Number of Windows (),72
# Frequency Domain Window Rejection Performed (),True
# Lower frequency limit for peaks (Hz),0.1
# Upper frequency limit for peaks (Hz),10.0
# Number of Standard Deviations Used for Rejection () [n],2
# Number of Accepted Windows (),54
# Number of Rejected Windows (),18
# Distribution of f0 (),lognormal
# Median f0 (Hz) [LMf0],6.2817
# Lognormal standard deviation f0 () [SigmaLNf0],0.0224
# 68 % Confidence Interval f0 (Hz),6.1427,to,6.4238
# Median T0 (s) [LMT0],0.1592
# Lognormal standard deviation T0 () [SigmaLNT0],0.0224
# 68 % Confidence Interval T0 (s),0.1557,to,0.1628
# Median Curve Distribution (),lognormal
# Median Curve Peak Frequency (Hz) [f0mc],6.3596
# Median Curve Peak Amplitude (),4.5042
# Frequency (Hz),Median Curve,1 STD Below Median Curve,1 STD Above Median Curve
0.05,0.9857,0.7252,1.3398
0.0513,1.0069,0.7286,1.3914
0.0527,1.0261,0.742,1.4189
0.0542,1.0407,0.766,1.4139
0.0556,1.0511,0.7895,1.3994
0.0571,1.0568,0.8074,1.3834
0.0587,1.0564,0.8199,1.3612
0.0602,1.0508,0.8188,1.3485
0.0619,1.0453,0.8037,1.3593
0.0635,1.0461,0.7895,1.3861
0.0653,1.0536,0.7886,1.4076
0.067,1.0636,0.8006,1.413
0.0688,1.0733,0.813,1.417
0.0707,1.0796,0.815,1.4302
0.0726,1.0785,0.8082,1.439
0.0745,1.0711,0.798,1.4375
0.0766,1.0647,0.7878,1.439
0.0786,1.0637,0.7816,1.4477
0.0807,1.0661,0.7848,1.4482
0.0829,1.069,0.7992,1.4299
0.0852,1.0723,0.8188,1.4043
0.0875,1.0769,0.8352,1.3886
0.0898,1.0829,0.8453,1.3873
0.0922,1.0868,0.8508,1.3881
0.0947,1.0823,0.8539,1.3719
0.0973,1.0668,0.8549,1.3312
0.0999,1.0452,0.8536,1.2798
0.1026,1.0272,0.852,1.2386
0.1054,1.0178,0.8536,1.2136
0.1082,1.0129,0.8569,1.1973
0.1111,1.0053,0.8577,1.1783
0.1141,0.9928,0.8564,1.1508
0.1172,0.9803,0.8545,1.1247
0.1204,0.9753,0.851,1.1176
0.1236,0.9791,0.8477,1.1308
0.127,0.9867,0.8494,1.1462
0.1304,0.9929,0.8566,1.1509
0.1339,0.9984,0.8699,1.146
0.1375,1.0084,0.8922,1.1398
0.1412,1.0273,0.922,1.1448
0.145,1.0555,0.9471,1.1763
0.149,1.0885,0.9627,1.2309
0.153,1.1176,0.9758,1.2801
0.1571,1.1335,0.9859,1.3031
0.1613,1.1323,0.9853,1.3013
0.1657,1.1179,0.9751,1.2817
0.1702,1.0977,0.9642,1.2497
0.1748,1.0779,0.9567,1.2145
0.1795,1.0612,0.9493,1.1864
0.1843,1.046,0.9365,1.1683
0.1893,1.0275,0.9189,1.1489
0.1944,1.0024,0.9013,1.1148
0.1996,0.9725,0.8833,1.0708
0.205,0.9434,0.8603,1.0345
0.2106,0.9187,0.8319,1.0144
0.2162,0.9008,0.8055,1.0075
0.2221,0.8946,0.7923,1.01
0.2281,0.9062,0.8031,1.0226
0.2342,0.9393,0.8414,1.0485
0.2405,0.9886,0.8964,1.0902
0.247,1.0393,0.9459,1.1419
0.2537,1.0744,0.9766,1.1819
0.2605,1.0863,0.9883,1.1939
0.2676,1.0794,0.9871,1.1802
0.2748,1.0638,0.9802,1.1544
0.2822,1.0501,0.9728,1.1335
0.2898,1.0441,0.9659,1.1287
0.2976,1.0441,0.9581,1.1378
0.3057,1.0443,0.9501,1.1477
0.3139,1.042,0.9442,1.15
0.3224,1.0398,0.944,1.1453
0.3311,1.0416,0.9521,1.1395
0.34,1.048,0.9637,1.1397
0.3492,1.0557,0.9716,1.147
0.3586,1.0603,0.973,1.1554
0.3683,1.0604,0.9693,1.1601
0.3782,1.0573,0.9649,1.1585
0.3884,1.0524,0.9647,1.1481
0.3989,1.0476,0.9681,1.1336
0.4097,1.0445,0.9701,1.1245
0.4207,1.0436,0.9699,1.1228
0.4321,1.0435,0.9688,1.124
0.4437,1.0411,0.9659,1.1222
0.4557,1.0339,0.961,1.1124
0.468,1.0227,0.9543,1.0959
0.4806,1.0119,0.9469,1.0814
0.4936,1.0068,0.9417,1.0762
0.5069,1.0094,0.9419,1.0818
0.5206,1.0189,0.9501,1.0928
0.5347,1.0324,0.9663,1.103
0.5491,1.0461,0.9859,1.1099
0.5639,1.0551,0.9997,1.1135
0.5791,1.0535,0.9996,1.1103
0.5947,1.0382,0.9862,1.0929
0.6108,1.0132,0.9651,1.0636
0.6273,0.989,0.9437,1.0364
0.6442,0.9763,0.9282,1.0269
0.6616,0.979,0.9223,1.0391
0.6794,0.9919,0.9277,1.0605
0.6978,1.0052,0.939,1.076
0.7166,1.0114,0.9455,1.0819
0.7359,1.0097,0.9427,1.0814
0.7558,1.0035,0.9351,1.0769
0.7762,0.9974,0.927,1.073
0.7971,0.9949,0.9219,1.0738
0.8186,0.9984,0.925,1.0777
0.8407,1.0068,0.936,1.0829
0.8634,1.0153,0.9449,1.0909
0.8867,1.019,0.9414,1.1031
0.9106,1.0165,0.9259,1.116
0.9352,1.0106,0.9066,1.1264
0.9604,1.0045,0.8893,1.1345
0.9863,0.9977,0.8727,1.1407
1.0129,0.9872,0.8526,1.143
1.0403,0.9711,0.8278,1.1391
1.0683,0.9507,0.8003,1.1293
1.0972,0.9285,0.7736,1.1145
1.1268,0.9056,0.7511,1.0918
1.1572,0.8826,0.735,1.0597
1.1884,0.8621,0.7249,1.0253
1.2205,0.8476,0.718,1.0005
1.2534,0.8403,0.713,0.9903
1.2872,0.8387,0.71,0.9907
1.3219,0.8399,0.7074,0.9972
1.3576,0.8419,0.7036,1.0073
1.3942,0.8435,0.6982,1.0191
1.4319,0.844,0.6924,1.0288
1.4705,0.8428,0.6883,1.0321
1.5102,0.84,0.6868,1.0274
1.5509,0.836,0.6874,1.0168
1.5928,0.8325,0.6901,1.0043
1.6358,0.8325,0.6956,0.9964
1.6799,0.8404,0.7052,1.0015
1.7252,0.8581,0.7193,1.0237
1.7718,0.8841,0.7373,1.06
1.8196,0.9136,0.7566,1.1032
1.8687,0.9415,0.7748,1.1441
1.9191,0.9638,0.7912,1.174
1.9709,0.9795,0.8056,1.1908
2.0241,0.9908,0.8177,1.2007
2.0787,1.0014,0.8283,1.2108
2.1348,1.0142,0.84,1.2246
2.1924,1.0309,0.8531,1.2456
2.2515,1.0512,0.8663,1.2755
2.3123,1.0737,0.8832,1.3052
2.3747,1.0964,0.9093,1.3221
2.4387,1.1184,0.942,1.3277
2.5045,1.1411,0.9733,1.3378
2.5721,1.1682,1.0033,1.3602
2.6415,1.203,1.039,1.3928
2.7128,1.2465,1.0825,1.4355
2.786,1.2971,1.1307,1.4878
2.8612,1.3514,1.1818,1.5453
2.9384,1.407,1.2356,1.6022
3.0176,1.4629,1.2901,1.659
3.0991,1.518,1.3411,1.7183
3.1827,1.5696,1.3882,1.7746
3.2686,1.6159,1.4356,1.8187
3.3567,1.6582,1.4858,1.8507
3.4473,1.6999,1.5352,1.8823
3.5403,1.7431,1.5787,1.9247
3.6359,1.7891,1.6168,1.9797
3.734,1.8394,1.6543,2.0452
3.8347,1.8983,1.7008,2.1188
3.9382,1.9714,1.766,2.2006
4.0444,2.0588,1.8482,2.2934
4.1536,2.1501,1.9303,2.395
4.2656,2.2262,1.9888,2.492
4.3807,2.2708,2.0094,2.5662
4.4989,2.2797,1.9952,2.6048
4.6203,2.26,1.9611,2.6043
4.745,2.2245,1.9223,2.5742
4.873,2.1926,1.8936,2.5387
5.0045,2.192,1.8971,2.5328
5.1396,2.2582,1.9622,2.5988
5.2782,2.43,2.1212,2.7839
5.4207,2.7383,2.4003,3.1238
5.5669,3.1748,2.7982,3.6022
5.7171,3.6603,3.2548,4.1163
5.8714,4.0773,3.6755,4.5231
6.0298,4.3559,3.9826,4.7641
6.1925,4.4909,4.1283,4.8854
6.3596,4.5042,4.1247,4.9187
6.5312,4.4301,4.0398,4.8581
6.7074,4.31,3.9357,4.7199
6.8884,4.1754,3.8371,4.5436
7.0743,4.0358,3.7316,4.3647
7.2651,3.8918,3.6015,4.2054
7.4612,3.7571,3.4617,4.0777
7.6625,3.6558,3.3409,4.0005
7.8692,3.5945,3.249,3.9767
8.0816,3.5464,3.1839,3.9502
8.2996,3.4648,3.1207,3.8467
8.5236,3.3115,3.0152,3.6369
8.7536,3.0851,2.834,3.3584
8.9898,2.8238,2.5976,3.0697
9.2323,2.5764,2.3633,2.8088
9.4814,2.3741,2.1662,2.602
9.7373,2.226,2.0128,2.4617
10.0,2.1285,1.8998,2.3847
