# hvsrpy output version 0.5.2
# File Name (),NA
# Method (),geometric-mean
# Azimuth (),0
# Window Length (s),1200.0
# Total Number of Windows (),72
# Frequency Domain Window Rejection Performed (),True
# Lower frequency limit for peaks (Hz),0.1
# Upper frequency limit for peaks (Hz),5.0
# Number of Standard Deviations Used for Rejection () [n],2
# Number of Accepted Windows (),70
# Number of Rejected Windows (),2
# Distribution of f0 (),lognormal
# Median f0 (Hz) [LMf0],0.561
# Lognormal standard deviation f0 () [SigmaLNf0],0.6754
# 68 % Confidence Interval f0 (Hz),0.2855,to,1.1022
# Median T0 (s) [LMT0],1.7826
# Lognormal standard deviation T0 () [SigmaLNT0],0.6754
# 68 % Confidence Interval T0 (s),0.9072,to,3.5027
# Median Curve Distribution (),lognormal
# Median Curve Peak Frequency (Hz) [f0mc],0.4302
# Median Curve Peak Amplitude (),2.3505
# Frequency (Hz),Median Curve,1 STD Below Median Curve,1 STD Above Median Curve
0.05,1.8936,1.1422,3.1395
0.0512,1.9392,1.1924,3.154
0.0524,1.9782,1.2401,3.1557
0.0536,2.0046,1.2738,3.1548
0.0548,2.0204,1.2915,3.1608
0.0561,2.032,1.2988,3.179
0.0574,2.043,1.3009,3.2083
0.0588,2.05,1.2978,3.238
0.0602,2.0465,1.2887,3.25
0.0616,2.0302,1.2788,3.223
0.063,2.006,1.2791,3.1458
0.0645,1.9832,1.2956,3.0357
0.066,1.9695,1.3225,2.933
0.0675,1.9639,1.3454,2.8666
0.0691,1.9593,1.3527,2.8378
0.0707,1.9494,1.3437,2.8282
0.0724,1.9306,1.3259,2.811
0.0741,1.8984,1.3059,2.7599
0.0758,1.8486,1.2839,2.6616
0.0776,1.781,1.256,2.5253
0.0794,1.7003,1.2203,2.3691
0.0813,1.6154,1.1801,2.2114
0.0832,1.5376,1.1406,2.0729
0.0851,1.475,1.1064,1.9664
0.0871,1.4267,1.0807,1.8835
0.0892,1.3828,1.0614,1.8015
0.0913,1.332,1.0411,1.7041
0.0934,1.2696,1.0155,1.5875
0.0956,1.2024,0.9889,1.4619
0.0978,1.1431,0.9655,1.3533
0.1001,1.1007,0.9439,1.2836
0.1025,1.0765,0.9213,1.2577
0.1049,1.0675,0.9024,1.2629
0.1073,1.0712,0.8961,1.2806
0.1098,1.0856,0.9068,1.2998
0.1124,1.109,0.9325,1.3189
0.115,1.1391,0.9671,1.3418
0.1177,1.1719,1.0015,1.3714
0.1205,1.2009,1.028,1.4028
0.1233,1.2183,1.0436,1.4222
0.1262,1.2186,1.0482,1.4167
0.1291,1.2012,1.0416,1.3853
0.1322,1.1714,1.0252,1.3384
0.1352,1.1381,1.0043,1.2897
0.1384,1.1108,0.9866,1.2507
0.1417,1.0958,0.9778,1.228
0.145,1.0942,0.9786,1.2235
0.1484,1.1023,0.9847,1.234
0.1518,1.1138,0.9926,1.2499
0.1554,1.1238,1.0015,1.261
0.159,1.1312,1.0107,1.2659
0.1628,1.1369,1.0181,1.2697
0.1666,1.1416,1.0213,1.276
0.1705,1.1442,1.0208,1.2825
0.1745,1.1442,1.0197,1.2839
0.1785,1.1438,1.0219,1.2801
0.1827,1.1479,1.0317,1.2771
0.187,1.162,1.0533,1.2818
0.1914,1.1887,1.0863,1.3008
0.1959,1.2273,1.124,1.34
0.2004,1.2742,1.1638,1.3951
0.2051,1.3245,1.2082,1.452
0.2099,1.3729,1.2534,1.5037
0.2149,1.416,1.2919,1.552
0.2199,1.4541,1.3217,1.5998
0.225,1.4901,1.3478,1.6475
0.2303,1.5265,1.3758,1.6936
0.2357,1.562,1.4081,1.7326
0.2412,1.5921,1.442,1.7579
0.2469,1.6136,1.4711,1.7698
0.2526,1.6296,1.4923,1.7794
0.2585,1.6498,1.51,1.8026
0.2646,1.6844,1.5342,1.8494
0.2708,1.7359,1.5734,1.9151
0.2771,1.7968,1.6261,1.9853
0.2836,1.8556,1.6772,2.053
0.2903,1.9052,1.7123,2.1198
0.2971,1.9472,1.7384,2.181
0.304,1.9886,1.7742,2.2288
0.3111,2.0354,1.827,2.2675
0.3184,2.0875,1.8884,2.3077
0.3259,2.1396,1.9481,2.3498
0.3335,2.1829,2.0017,2.3806
0.3413,2.2097,2.042,2.3912
0.3493,2.2159,2.0562,2.3879
0.3575,2.2037,2.0413,2.3791
0.3658,2.1825,2.0134,2.3658
0.3744,2.1661,1.9929,2.3542
0.3832,2.168,1.9929,2.3585
0.3921,2.1958,2.0195,2.3874
0.4013,2.2454,2.0701,2.4356
0.4107,2.3013,2.1295,2.487
0.4203,2.3419,2.1743,2.5224
0.4302,2.3505,2.1875,2.5257
0.4402,2.3246,2.1654,2.4956
0.4506,2.274,2.115,2.4449
0.4611,2.2109,2.0505,2.3838
0.4719,2.1435,1.9823,2.3179
0.4829,2.0768,1.9163,2.2507
0.4942,2.016,1.8598,2.1853
0.5058,1.9672,1.8178,2.1289
0.5177,1.9344,1.7906,2.0898
0.5298,1.9146,1.776,2.0641
0.5422,1.8982,1.7685,2.0374
0.5549,1.8746,1.7558,2.0015
0.5679,1.8394,1.7259,1.9603
0.5812,1.7957,1.6793,1.9201
0.5948,1.7506,1.6268,1.8839
0.6087,1.7112,1.5788,1.8547
0.6229,1.6826,1.5414,1.8367
0.6375,1.6682,1.5179,1.8334
0.6525,1.6707,1.5114,1.8468
0.6677,1.6913,1.5258,1.8747
0.6834,1.7284,1.5635,1.9106
0.6994,1.7775,1.6213,1.9488
0.7157,1.8318,1.6886,1.9872
0.7325,1.8844,1.7534,2.0251
0.7496,1.9302,1.8055,2.0635
0.7672,1.9668,1.8383,2.1043
0.7851,1.9922,1.8527,2.1421
0.8035,2.0037,1.8556,2.1636
0.8223,1.9999,1.85,2.162
0.8416,1.9842,1.8354,2.1451
0.8613,1.9656,1.8146,2.1291
0.8815,1.9549,1.7964,2.1274
0.9021,1.9591,1.7892,2.1451
0.9232,1.9782,1.7956,2.1794
0.9448,2.0066,1.8135,2.2204
0.9669,2.0374,1.8403,2.2555
0.9896,2.0646,1.8724,2.2765
1.0128,2.0825,1.9016,2.2805
1.0365,2.0835,1.9163,2.2652
1.0607,2.0613,1.9052,2.2303
1.0856,2.0168,1.8618,2.1848
1.111,1.9581,1.7921,2.1394
1.137,1.8953,1.7124,2.0978
1.1636,1.8357,1.6376,2.0579
1.1908,1.7842,1.5799,2.0149
1.2187,1.7465,1.5485,1.9699
1.2473,1.7289,1.546,1.9333
1.2765,1.7336,1.5677,1.9172
1.3063,1.7562,1.6013,1.9261
1.3369,1.7867,1.632,1.9562
1.3682,1.8151,1.6496,1.9972
1.4003,1.8354,1.6538,2.0369
1.433,1.8474,1.6503,2.068
1.4666,1.8555,1.6473,2.0901
1.5009,1.8679,1.6542,2.1093
1.5361,1.8928,1.6799,2.1326
1.572,1.933,1.7286,2.1615
1.6088,1.9813,1.7909,2.1919
1.6465,2.0231,1.846,2.2173
1.685,2.0461,1.8769,2.2305
1.7245,2.0479,1.8815,2.229
1.7649,2.0373,1.8703,2.2193
1.8062,2.0287,1.8589,2.214
1.8485,2.0345,1.8567,2.2295
1.8917,2.0589,1.8576,2.282
1.936,2.0939,1.8513,2.3683
1.9813,2.1233,1.8353,2.4564
2.0277,2.1301,1.8116,2.5046
2.0752,2.1055,1.7818,2.488
2.1238,2.0528,1.7469,2.4124
2.1735,1.9845,1.708,2.3059
2.2244,1.915,1.6672,2.1997
2.2765,1.8547,1.627,2.1142
2.3298,1.8062,1.5902,2.0516
2.3843,1.7647,1.5558,2.0018
2.4401,1.7223,1.5144,1.9586
2.4973,1.6749,1.4537,1.9299
2.5557,1.6272,1.3777,1.9219
2.6155,1.5879,1.3114,1.9228
2.6768,1.5625,1.2751,1.9146
2.7395,1.5492,1.2685,1.8921
2.8036,1.5413,1.2736,1.8652
2.8692,1.5312,1.2719,1.8433
2.9364,1.5146,1.2581,1.8234
3.0051,1.4916,1.2346,1.8022
3.0755,1.4647,1.2024,1.7843
3.1475,1.4374,1.1648,1.7739
3.2212,1.4143,1.129,1.7716
3.2966,1.3991,1.1007,1.7782
3.3738,1.3921,1.081,1.7927
3.4528,1.3882,1.0669,1.8064
3.5336,1.3792,1.0538,1.8051
3.6163,1.3582,1.0372,1.7786
3.701,1.3244,1.0154,1.7274
3.7876,1.2831,0.9903,1.6624
3.8763,1.2434,0.9666,1.5995
3.967,1.2141,0.9478,1.5551
4.0599,1.2003,0.9358,1.5397
4.155,1.2033,0.9317,1.5541
4.2522,1.2219,0.9369,1.5935
4.3518,1.2543,0.9521,1.6525
4.4537,1.2982,0.9765,1.7258
4.5579,1.3495,1.0085,1.8057
4.6647,1.4018,1.0448,1.8808
4.7739,1.448,1.0812,1.9393
4.8856,1.4831,1.1139,1.9747
5.0,1.5062,1.1405,1.9891
