# hvsrpy output version 0.5.2
# File Name (),NA
# Method (),geometric-mean
# Azimuth (),0
# Window Length (s),1200.0
# Total Number of Windows (),72
# Frequency Domain Window Rejection Performed (),True
# Lower frequency limit for peaks (Hz),0.1
# Upper frequency limit for peaks (Hz),5.0
# Number of Standard Deviations Used for Rejection () [n],2
# Number of Accepted Windows (),72
# Number of Rejected Windows (),0
# Distribution of f0 (),lognormal
# Median f0 (Hz) [LMf0],1.1142
# Lognormal standard deviation f0 () [SigmaLNf0],0.7616
# 68 % Confidence Interval f0 (Hz),0.5203,to,2.3862
# Median T0 (s) [LMT0],0.8975
# Lognormal standard deviation T0 () [SigmaLNT0],0.7616
# 68 % Confidence Interval T0 (s),0.4191,to,1.9221
# Median Curve Distribution (),lognormal
# Median Curve Peak Frequency (Hz) [f0mc],0.6834
# Median Curve Peak Amplitude (),1.8091
# Frequency (Hz),Median Curve,1 STD Below Median Curve,1 STD Above Median Curve
0.05,1.7985,1.148,2.8177
0.0512,1.8906,1.2558,2.8462
0.0524,2.002,1.3708,2.924
0.0536,2.128,1.4795,3.0608
0.0548,2.2533,1.5778,3.2181
0.0561,2.3595,1.6661,3.3414
0.0574,2.4333,1.7439,3.3953
0.0588,2.4705,1.8041,3.3832
0.0602,2.4756,1.8348,3.3402
0.0616,2.4614,1.8314,3.308
0.063,2.4396,1.8122,3.2843
0.0645,2.4138,1.8017,3.234
0.066,2.3813,1.8044,3.1426
0.0675,2.3391,1.8077,3.0268
0.0691,2.2912,1.7998,2.9168
0.0707,2.2444,1.7743,2.8391
0.0724,2.1971,1.723,2.8016
0.0741,2.1366,1.6473,2.7713
0.0758,2.0538,1.561,2.7022
0.0776,1.9565,1.4743,2.5965
0.0794,1.8636,1.394,2.4914
0.0813,1.7893,1.3296,2.4079
0.0832,1.7371,1.2887,2.3414
0.0851,1.7029,1.2719,2.2799
0.0871,1.678,1.2729,2.2121
0.0892,1.6497,1.2791,2.1278
0.0913,1.6046,1.2726,2.0232
0.0934,1.5363,1.2405,1.9026
0.0956,1.4505,1.1874,1.7719
0.0978,1.3614,1.1293,1.6411
0.1001,1.2816,1.0768,1.5252
0.1025,1.2166,1.033,1.4329
0.1049,1.1672,0.9962,1.3675
0.1073,1.1312,0.9615,1.3308
0.1098,1.1073,0.9328,1.3144
0.1124,1.0947,0.9188,1.3043
0.115,1.0908,0.9198,1.2935
0.1177,1.0917,0.9295,1.2822
0.1205,1.0937,0.9415,1.2705
0.1233,1.0945,0.9521,1.2582
0.1262,1.0939,0.9591,1.2477
0.1291,1.0937,0.9622,1.2431
0.1322,1.097,0.9648,1.2474
0.1352,1.1071,0.9714,1.2618
0.1384,1.1261,0.9849,1.2876
0.1417,1.1541,1.0059,1.3241
0.145,1.1892,1.0355,1.3657
0.1484,1.2284,1.075,1.4037
0.1518,1.2687,1.1233,1.4329
0.1554,1.3073,1.172,1.4583
0.159,1.342,1.208,1.491
0.1628,1.37,1.2265,1.5302
0.1666,1.3867,1.2347,1.5575
0.1705,1.3877,1.2371,1.5566
0.1745,1.3711,1.2289,1.5297
0.1785,1.3405,1.2034,1.4933
0.1827,1.3048,1.1676,1.4582
0.187,1.273,1.138,1.424
0.1914,1.2499,1.1226,1.3917
0.1959,1.2365,1.118,1.3676
0.2004,1.2325,1.1196,1.3567
0.2051,1.2377,1.1268,1.3595
0.2099,1.2519,1.14,1.3747
0.2149,1.2733,1.1571,1.4011
0.2199,1.2981,1.1765,1.4322
0.225,1.3204,1.1972,1.4563
0.2303,1.3351,1.2167,1.465
0.2357,1.341,1.2306,1.4612
0.2412,1.3411,1.2354,1.4558
0.2469,1.3407,1.2347,1.4558
0.2526,1.3454,1.2365,1.4638
0.2585,1.3592,1.2473,1.4812
0.2646,1.3843,1.2695,1.5094
0.2708,1.4206,1.303,1.5488
0.2771,1.4663,1.3461,1.5971
0.2836,1.5179,1.397,1.6491
0.2903,1.5709,1.4509,1.7007
0.2971,1.6207,1.4999,1.7512
0.304,1.6631,1.5379,1.7985
0.3111,1.6934,1.5639,1.8336
0.3184,1.7072,1.5769,1.8482
0.3259,1.7032,1.5715,1.846
0.3335,1.686,1.5475,1.8369
0.3413,1.6639,1.5174,1.8246
0.3493,1.6462,1.4972,1.81
0.3575,1.6401,1.4947,1.7996
0.3658,1.6495,1.5089,1.8032
0.3744,1.6726,1.5347,1.8228
0.3832,1.7017,1.5658,1.8494
0.3921,1.7259,1.5934,1.8694
0.4013,1.7361,1.6076,1.8749
0.4107,1.7295,1.6034,1.8656
0.4203,1.71,1.5835,1.8467
0.4302,1.685,1.5561,1.8245
0.4402,1.6605,1.5304,1.8017
0.4506,1.6396,1.5121,1.7779
0.4611,1.623,1.5023,1.7535
0.4719,1.6109,1.4973,1.7332
0.4829,1.6046,1.4935,1.7239
0.4942,1.6066,1.4935,1.7283
0.5058,1.6194,1.5031,1.7447
0.5177,1.6427,1.5241,1.7705
0.5298,1.6728,1.5537,1.8011
0.5422,1.7032,1.5851,1.8301
0.5549,1.7274,1.6107,1.8526
0.5679,1.7416,1.6253,1.8663
0.5812,1.7463,1.6292,1.8717
0.5948,1.7457,1.6269,1.8732
0.6087,1.7462,1.6228,1.8791
0.6229,1.753,1.6207,1.8961
0.6375,1.7678,1.6246,1.9236
0.6525,1.7877,1.6348,1.9548
0.6677,1.8045,1.6452,1.9793
0.6834,1.8091,1.646,1.9885
0.6994,1.799,1.633,1.9819
0.7157,1.7818,1.6132,1.968
0.7325,1.7695,1.5984,1.9589
0.7496,1.7684,1.5938,1.9623
0.7672,1.7744,1.5924,1.9772
0.7851,1.7775,1.581,1.9983
0.8035,1.7713,1.5535,2.0196
0.8223,1.7582,1.517,2.0377
0.8416,1.7444,1.4815,2.0539
0.8613,1.7333,1.4497,2.0724
0.8815,1.723,1.4177,2.0941
0.9021,1.7093,1.3824,2.1134
0.9232,1.689,1.3448,2.1214
0.9448,1.6621,1.3077,2.1125
0.9669,1.6303,1.2726,2.0884
0.9896,1.5967,1.2395,2.0566
1.0128,1.5656,1.2089,2.0277
1.0365,1.5417,1.1821,2.0108
1.0607,1.5274,1.1605,2.0103
1.0856,1.5217,1.1442,2.0236
1.111,1.5206,1.1311,2.0442
1.137,1.5204,1.1185,2.0668
1.1636,1.5198,1.1052,2.0899
1.1908,1.5194,1.0926,2.1129
1.2187,1.5193,1.0824,2.1325
1.2473,1.518,1.0752,2.1432
1.2765,1.5138,1.0693,2.1431
1.3063,1.5066,1.0627,2.1361
1.3369,1.4987,1.055,2.1291
1.3682,1.492,1.0478,2.1245
1.4003,1.4868,1.0433,2.119
1.433,1.4825,1.0427,2.1077
1.4666,1.4787,1.0459,2.0906
1.5009,1.4763,1.0513,2.073
1.5361,1.4758,1.0569,2.0609
1.572,1.4763,1.0616,2.0529
1.6088,1.4754,1.0671,2.0401
1.6465,1.4732,1.0766,2.0159
1.685,1.472,1.0932,1.9821
1.7245,1.4751,1.1179,1.9464
1.7649,1.4842,1.1486,1.9178
1.8062,1.4991,1.1799,1.9046
1.8485,1.5183,1.2078,1.9087
1.8917,1.5401,1.2337,1.9225
1.936,1.5624,1.2601,1.9373
1.9813,1.5842,1.2884,1.9479
2.0277,1.6049,1.3185,1.9535
2.0752,1.6232,1.3482,1.9543
2.1238,1.6367,1.3749,1.9485
2.1735,1.6423,1.3955,1.9327
2.2244,1.6384,1.4085,1.9058
2.2765,1.6259,1.4142,1.8692
2.3298,1.6072,1.4137,1.8271
2.3843,1.5843,1.4044,1.7871
2.4401,1.5582,1.3813,1.7577
2.4973,1.5296,1.3429,1.7423
2.5557,1.5,1.2939,1.7388
2.6155,1.4717,1.2427,1.7429
2.6768,1.4474,1.1969,1.7503
2.7395,1.4293,1.1617,1.7585
2.8036,1.4186,1.139,1.7667
2.8692,1.414,1.1266,1.7746
2.9364,1.4121,1.1198,1.7808
3.0051,1.4095,1.114,1.7833
3.0755,1.4041,1.1072,1.7807
3.1475,1.3962,1.0991,1.7736
3.2212,1.3864,1.0897,1.7638
3.2966,1.3754,1.0791,1.7532
3.3738,1.3641,1.068,1.7423
3.4528,1.3538,1.0582,1.732
3.5336,1.3464,1.0513,1.7244
3.6163,1.3437,1.0484,1.7223
3.701,1.3456,1.0483,1.7271
3.7876,1.3495,1.0483,1.7373
3.8763,1.3525,1.0464,1.7481
3.967,1.3531,1.0431,1.7553
4.0599,1.3526,1.0405,1.7583
4.155,1.3534,1.0408,1.76
4.2522,1.3581,1.0452,1.7645
4.3518,1.3676,1.0537,1.7751
4.4537,1.3817,1.0648,1.7928
4.5579,1.3984,1.0769,1.8158
4.6647,1.4155,1.0889,1.84
4.7739,1.4305,1.1,1.8604
4.8856,1.4419,1.1096,1.8736
5.0,1.4484,1.1166,1.8789
