# hvsrpy output version 0.5.2
# File Name (),NA
# Method (),geometric-mean
# Azimuth (),0
# Window Length (s),1200.0
# Total Number of Windows (),72
# Frequency Domain Window Rejection Performed (),True
# Lower frequency limit for peaks (Hz),0.1
# Upper frequency limit for peaks (Hz),5.0
# Number of Standard Deviations Used for Rejection () [n],2
# Number of Accepted Windows (),72
# Number of Rejected Windows (),0
# Distribution of f0 (),lognormal
# Median f0 (Hz) [LMf0],0.8849
# Lognormal standard deviation f0 () [SigmaLNf0],0.7159
# 68 % Confidence Interval f0 (Hz),0.4325,to,1.8104
# Median T0 (s) [LMT0],1.1301
# Lognormal standard deviation T0 () [SigmaLNT0],0.7159
# 68 % Confidence Interval T0 (s),0.5524,to,2.3122
# Median Curve Distribution (),lognormal
# Median Curve Peak Frequency (Hz) [f0mc],0.4302
# Median Curve Peak Amplitude (),2.3095
# Frequency (Hz),Median Curve,1 STD Below Median Curve,1 STD Above Median Curve
0.05,1.1815,0.7748,1.8016
0.0512,1.1974,0.8051,1.781
0.0524,1.2078,0.834,1.7491
0.0536,1.2221,0.8609,1.7349
0.0548,1.2449,0.8891,1.7432
0.0561,1.276,0.9188,1.7719
0.0574,1.3128,0.9474,1.8192
0.0588,1.3535,0.9754,1.8782
0.0602,1.3973,1.0068,1.9393
0.0616,1.4432,1.0455,1.9922
0.063,1.4898,1.0904,2.0355
0.0645,1.5333,1.1339,2.0734
0.066,1.5667,1.1698,2.0983
0.0675,1.5869,1.1995,2.0995
0.0691,1.5971,1.2263,2.0799
0.0707,1.6008,1.2503,2.0497
0.0724,1.5966,1.2655,2.0143
0.0741,1.5778,1.262,1.9727
0.0758,1.5388,1.2377,1.9132
0.0776,1.482,1.202,1.8273
0.0794,1.4191,1.1664,1.7266
0.0813,1.363,1.1378,1.6327
0.0832,1.3208,1.1186,1.5596
0.0851,1.2932,1.1059,1.5122
0.0871,1.2761,1.0915,1.4918
0.0892,1.2645,1.0715,1.4921
0.0913,1.2548,1.0502,1.4993
0.0934,1.2453,1.0339,1.5
0.0956,1.2349,1.0253,1.4873
0.0978,1.2213,1.0188,1.464
0.1001,1.2015,1.0062,1.4347
0.1025,1.1736,0.9873,1.395
0.1049,1.1415,0.9709,1.342
0.1073,1.1155,0.9627,1.2927
0.1098,1.1042,0.9622,1.2672
0.1124,1.1067,0.9702,1.2624
0.115,1.1139,0.9846,1.2602
0.1177,1.1164,0.9941,1.2538
0.1205,1.1118,0.9889,1.25
0.1233,1.1036,0.972,1.253
0.1262,1.0953,0.9526,1.2593
0.1291,1.0878,0.9364,1.2636
0.1322,1.0801,0.9251,1.2612
0.1352,1.071,0.918,1.2496
0.1384,1.0608,0.9148,1.2301
0.1417,1.0518,0.9153,1.2087
0.145,1.0483,0.9203,1.1942
0.1484,1.0536,0.9308,1.1927
0.1518,1.069,0.9487,1.2047
0.1554,1.0944,0.975,1.2284
0.159,1.1288,1.0089,1.263
0.1628,1.1705,1.0482,1.3072
0.1666,1.2163,1.0899,1.3573
0.1705,1.2614,1.1297,1.4085
0.1745,1.3008,1.1646,1.4529
0.1785,1.3298,1.1945,1.4804
0.1827,1.3469,1.2192,1.4879
0.187,1.3555,1.2352,1.4877
0.1914,1.3621,1.2426,1.4932
0.1959,1.3717,1.2499,1.5054
0.2004,1.3856,1.2621,1.5212
0.2051,1.4025,1.2778,1.5394
0.2099,1.4206,1.2953,1.558
0.2149,1.4394,1.3159,1.5744
0.2199,1.4597,1.3392,1.591
0.225,1.4829,1.3616,1.615
0.2303,1.5104,1.3825,1.6501
0.2357,1.5423,1.4055,1.6925
0.2412,1.5765,1.432,1.7355
0.2469,1.6095,1.4609,1.7733
0.2526,1.6407,1.4905,1.8061
0.2585,1.6746,1.521,1.8438
0.2646,1.7188,1.5568,1.8977
0.2708,1.7786,1.6035,1.9728
0.2771,1.8523,1.6623,2.0641
0.2836,1.9299,1.7289,2.1544
0.2903,1.9966,1.7945,2.2215
0.2971,2.0401,1.8476,2.2526
0.304,2.0583,1.8776,2.2563
0.3111,2.0598,1.8818,2.2546
0.3184,2.0571,1.8729,2.2594
0.3259,2.0589,1.8716,2.265
0.3335,2.0674,1.8872,2.2648
0.3413,2.0794,1.9122,2.2612
0.3493,2.0889,1.9285,2.2626
0.3575,2.0914,1.9263,2.2707
0.3658,2.0885,1.9155,2.2772
0.3744,2.0894,1.9141,2.2807
0.3832,2.1054,1.9333,2.2927
0.3921,2.143,1.9732,2.3274
0.4013,2.1983,2.0275,2.3835
0.4107,2.2565,2.0871,2.4397
0.4203,2.2982,2.1357,2.4731
0.4302,2.3095,2.1552,2.4749
0.4402,2.2898,2.1418,2.448
0.4506,2.2486,2.1046,2.4024
0.4611,2.1969,2.0527,2.3513
0.4719,2.1411,1.9931,2.3
0.4829,2.0835,1.9336,2.2451
0.4942,2.0276,1.8793,2.1875
0.5058,1.9785,1.8325,2.1361
0.5177,1.9411,1.7957,2.0983
0.5298,1.9159,1.7716,2.0718
0.5422,1.8981,1.7573,2.05
0.5549,1.8805,1.7416,2.0305
0.5679,1.8577,1.715,2.0124
0.5812,1.828,1.6799,1.9892
0.5948,1.7937,1.6459,1.9548
0.6087,1.7599,1.6184,1.9137
0.6229,1.7331,1.5963,1.8817
0.6375,1.7204,1.5796,1.8737
0.6525,1.7274,1.5781,1.8908
0.6677,1.7566,1.6016,1.9265
0.6834,1.8052,1.65,1.975
0.6994,1.8654,1.7141,2.0301
0.7157,1.9268,1.7798,2.086
0.7325,1.9802,1.8328,2.1395
0.7496,2.0203,1.8674,2.1858
0.7672,2.0458,1.8883,2.2163
0.7851,2.0571,1.9023,2.2245
0.8035,2.0544,1.9088,2.211
0.8223,2.038,1.902,2.1837
0.8416,2.0128,1.8802,2.1548
0.8613,1.9893,1.8511,2.1377
0.8815,1.9799,1.8287,2.1435
0.9021,1.9926,1.8283,2.1716
0.9232,2.0265,1.8592,2.2088
0.9448,2.0726,1.9178,2.2398
0.9669,2.1193,1.9865,2.2609
0.9896,2.1582,2.0398,2.2834
1.0128,2.1852,2.0656,2.3117
1.0365,2.1983,2.0732,2.3309
1.0607,2.196,2.0706,2.3289
1.0856,2.1784,2.0541,2.3103
1.111,2.148,2.0173,2.2871
1.137,2.107,1.9648,2.2596
1.1636,2.0577,1.9058,2.2217
1.1908,2.0048,1.8483,2.1745
1.2187,1.958,1.8027,2.1267
1.2473,1.9289,1.7793,2.091
1.2765,1.9238,1.7784,2.0811
1.3063,1.9399,1.7914,2.1008
1.3369,1.9674,1.812,2.1361
1.3682,1.9963,1.837,2.1694
1.4003,2.0225,1.8616,2.1974
1.433,2.0474,1.8816,2.2278
1.4666,2.0737,1.8969,2.2669
1.5009,2.1026,1.9107,2.3137
1.5361,2.1336,1.9256,2.3641
1.572,2.1647,1.941,2.4142
1.6088,2.1907,1.9546,2.4554
1.6465,2.2057,1.9632,2.4782
1.685,2.2073,1.9643,2.4803
1.7245,2.2005,1.9606,2.4697
1.7649,2.1953,1.957,2.4625
1.8062,2.198,1.9551,2.4711
1.8485,2.207,1.9541,2.4926
1.8917,2.2148,1.9529,2.5119
1.936,2.2138,1.9472,2.517
1.9813,2.1984,1.9304,2.5036
2.0277,2.1664,1.9,2.4703
2.0752,2.1209,1.8604,2.4179
2.1238,2.0698,1.8175,2.357
2.1735,2.0223,1.774,2.3053
2.2244,1.9838,1.7305,2.2742
2.2765,1.9523,1.6887,2.2572
2.3298,1.9205,1.6486,2.2373
2.3843,1.8815,1.6065,2.2036
2.4401,1.8335,1.5593,2.1559
2.4973,1.7796,1.508,2.1
2.5557,1.7243,1.4567,2.041
2.6155,1.6701,1.4087,1.9799
2.6768,1.6166,1.3644,1.9153
2.7395,1.562,1.3222,1.8452
2.8036,1.505,1.2797,1.77
2.8692,1.4461,1.2355,1.6926
2.9364,1.3868,1.19,1.6162
3.0051,1.3286,1.1445,1.5423
3.0755,1.2714,1.0994,1.4703
3.1475,1.2152,1.0546,1.4001
3.2212,1.161,1.0107,1.3336
3.2966,1.1117,0.9696,1.2747
3.3738,1.0703,0.9331,1.2278
3.4528,1.0378,0.9014,1.1949
3.5336,1.0123,0.8728,1.1741
3.6163,0.9898,0.8438,1.1609
3.701,0.9665,0.8118,1.1507
3.7876,0.9419,0.7785,1.1397
3.8763,0.919,0.7496,1.1266
3.967,0.9016,0.7294,1.1143
4.0599,0.8922,0.7183,1.1083
4.155,0.891,0.7145,1.1111
4.2522,0.8962,0.7166,1.1208
4.3518,0.9057,0.7234,1.1341
4.4537,0.9181,0.7335,1.1493
4.5579,0.9321,0.7457,1.1649
4.6647,0.9461,0.7592,1.179
4.7739,0.9591,0.7726,1.1907
4.8856,0.9705,0.784,1.2014
5.0,0.9803,0.7924,1.2128
