# hvsrpy output version 0.5.2
# File Name (),NA
# Method (),geometric-mean
# Azimuth (),0
# Window Length (s),1200.0
# Total Number of Windows (),72
# Frequency Domain Window Rejection Performed (),True
# Lower frequency limit for peaks (Hz),0.1
# Upper frequency limit for peaks (Hz),5.0
# Number of Standard Deviations Used for Rejection () [n],2
# Number of Accepted Windows (),71
# Number of Rejected Windows (),1
# Distribution of f0 (),lognormal
# Median f0 (Hz) [LMf0],0.6153
# Lognormal standard deviation f0 () [SigmaLNf0],0.5963
# 68 % Confidence Interval f0 (Hz),0.3389,to,1.1169
# Median T0 (s) [LMT0],1.6253
# Lognormal standard deviation T0 () [SigmaLNT0],0.5963
# 68 % Confidence Interval T0 (s),0.8953,to,2.9504
# Median Curve Distribution (),lognormal
# Median Curve Peak Frequency (Hz) [f0mc],0.4302
# Median Curve Peak Amplitude (),2.3104
# Frequency (Hz),Median Curve,1 STD Below Median Curve,1 STD Above Median Curve
0.05,1.8076,1.0874,3.0047
0.0512,1.8464,1.1025,3.0922
0.0524,1.8832,1.13,3.1386
0.0536,1.9101,1.1615,3.1412
0.0548,1.9229,1.1927,3.1
0.0561,1.9245,1.2227,3.029
0.0574,1.922,1.2507,2.9537
0.0588,1.9202,1.2761,2.8896
0.0602,1.9183,1.2994,2.8321
0.0616,1.9129,1.3187,2.7748
0.063,1.9017,1.3304,2.7182
0.0645,1.8866,1.3363,2.6636
0.066,1.8738,1.3443,2.6118
0.0675,1.8688,1.3634,2.5615
0.0691,1.8716,1.3908,2.5187
0.0707,1.8733,1.4103,2.4882
0.0724,1.8591,1.4069,2.4567
0.0741,1.8185,1.3775,2.4007
0.0758,1.7538,1.3326,2.3082
0.0776,1.6762,1.2852,2.1862
0.0794,1.5946,1.2402,2.0503
0.0813,1.5127,1.1955,1.914
0.0832,1.4331,1.1488,1.7879
0.0851,1.3615,1.1011,1.6833
0.0871,1.3045,1.0561,1.6112
0.0892,1.2652,1.0219,1.5664
0.0913,1.2406,1.0049,1.5317
0.0934,1.225,1.0023,1.4971
0.0956,1.2133,1.0059,1.4634
0.0978,1.202,1.0103,1.4299
0.1001,1.1893,1.014,1.395
0.1025,1.1773,1.0151,1.3654
0.1049,1.1707,1.013,1.353
0.1073,1.1737,1.013,1.3598
0.1098,1.1858,1.0216,1.3764
0.1124,1.2033,1.0374,1.3957
0.115,1.2221,1.0549,1.4159
0.1177,1.24,1.0727,1.4334
0.1205,1.2556,1.0921,1.4436
0.1233,1.267,1.1093,1.4471
0.1262,1.2711,1.1158,1.4481
0.1291,1.2641,1.1065,1.4441
0.1322,1.2438,1.0839,1.4272
0.1352,1.2126,1.0537,1.3955
0.1384,1.1771,1.0214,1.3566
0.1417,1.1443,0.9923,1.3197
0.145,1.1189,0.9715,1.2886
0.1484,1.1025,0.9621,1.2634
0.1518,1.0951,0.9638,1.2444
0.1554,1.0962,0.973,1.235
0.159,1.1044,0.9835,1.2402
0.1628,1.1174,0.9921,1.2584
0.1666,1.131,1.0005,1.2786
0.1705,1.1418,1.0106,1.2899
0.1745,1.1492,1.024,1.2897
0.1785,1.1568,1.0427,1.2834
0.1827,1.1697,1.0666,1.2826
0.187,1.1916,1.0927,1.2994
0.1914,1.2232,1.1197,1.3364
0.1959,1.2626,1.1505,1.3856
0.2004,1.3058,1.1857,1.4381
0.2051,1.3488,1.2213,1.4897
0.2099,1.3885,1.2525,1.5394
0.2149,1.4238,1.2795,1.5844
0.2199,1.4551,1.3062,1.6208
0.225,1.484,1.3367,1.6475
0.2303,1.5124,1.3716,1.6676
0.2357,1.5413,1.4067,1.6887
0.2412,1.5709,1.4361,1.7185
0.2469,1.6008,1.4597,1.7554
0.2526,1.6309,1.4847,1.7915
0.2585,1.6643,1.5175,1.8254
0.2646,1.7065,1.5605,1.866
0.2708,1.7599,1.613,1.9203
0.2771,1.82,1.6706,1.9828
0.2836,1.8751,1.7224,2.0414
0.2903,1.9136,1.7529,2.0889
0.2971,1.9314,1.7609,2.1185
0.304,1.9365,1.7649,2.1248
0.3111,1.9439,1.7823,2.1201
0.3184,1.9654,1.8125,2.1313
0.3259,2.0022,1.8431,2.1751
0.3335,2.0442,1.8678,2.2373
0.3413,2.0769,1.8836,2.29
0.3493,2.0907,1.8879,2.3152
0.3575,2.0882,1.887,2.3109
0.3658,2.0829,1.8925,2.2925
0.3744,2.0898,1.9134,2.2826
0.3832,2.1165,1.9524,2.2946
0.3921,2.161,2.006,2.3279
0.4013,2.214,2.0645,2.3744
0.4107,2.2635,2.1144,2.4232
0.4203,2.2981,2.1447,2.4624
0.4302,2.3104,2.1515,2.4811
0.4402,2.2997,2.138,2.4736
0.4506,2.2693,2.1108,2.4398
0.4611,2.2237,2.0754,2.3827
0.4719,2.167,2.0327,2.3102
0.4829,2.1048,1.9805,2.237
0.4942,2.0453,1.9218,2.1767
0.5058,1.996,1.8667,2.1342
0.5177,1.9591,1.8222,2.1063
0.5298,1.9295,1.7867,2.0838
0.5422,1.8981,1.7526,2.0556
0.5549,1.8589,1.7132,2.017
0.5679,1.8142,1.6692,1.9717
0.5812,1.7707,1.6281,1.9258
0.5948,1.7341,1.5955,1.8848
0.6087,1.7062,1.5713,1.8526
0.6229,1.6869,1.5535,1.8317
0.6375,1.6781,1.5438,1.824
0.6525,1.6838,1.548,1.8315
0.6677,1.7085,1.5733,1.8554
0.6834,1.7529,1.6214,1.895
0.6994,1.8113,1.6838,1.9485
0.7157,1.8734,1.7462,2.0099
0.7325,1.928,1.7972,2.0683
0.7496,1.9679,1.8319,2.114
0.7672,1.9914,1.8499,2.1437
0.7851,2.0001,1.8541,2.1577
0.8035,1.9958,1.8483,2.1552
0.8223,1.9803,1.8352,2.1369
0.8416,1.9579,1.8185,2.1079
0.8613,1.9371,1.8043,2.0796
0.8815,1.9279,1.7978,2.0674
0.9021,1.9372,1.8009,2.0839
0.9232,1.9659,1.8142,2.1303
0.9448,2.0084,1.8361,2.1969
0.9669,2.0556,1.8625,2.2687
0.9896,2.0972,1.887,2.3307
1.0128,2.1231,1.9021,2.3699
1.0365,2.1249,1.901,2.3751
1.0607,2.0985,1.8805,2.3417
1.0856,2.0478,1.8403,2.2788
1.111,1.9828,1.7828,2.2052
1.137,1.9145,1.7151,2.1372
1.1636,1.8527,1.6511,2.079
1.1908,1.8055,1.6062,2.0295
1.2187,1.7791,1.5853,1.9965
1.2473,1.7765,1.581,1.9961
1.2765,1.7953,1.5863,2.0318
1.3063,1.8274,1.6013,2.0855
1.3369,1.8629,1.6253,2.1351
1.3682,1.8948,1.6516,2.1738
1.4003,1.922,1.6723,2.209
1.433,1.9469,1.6878,2.2458
1.4666,1.972,1.7062,2.2793
1.5009,1.9991,1.7353,2.3029
1.5361,2.0297,1.7761,2.3195
1.572,2.0638,1.8217,2.338
1.6088,2.0975,1.862,2.3627
1.6465,2.1226,1.8847,2.3904
1.685,2.1309,1.8774,2.4186
1.7245,2.1197,1.8412,2.4403
1.7649,2.0943,1.7955,2.4427
1.8062,2.0658,1.7598,2.4249
1.8485,2.0434,1.7414,2.3977
1.8917,2.0289,1.7359,2.3714
1.936,2.0167,1.7314,2.3492
1.9813,1.998,1.717,2.325
2.0277,1.9658,1.6877,2.2896
2.0752,1.9177,1.6423,2.2394
2.1238,1.8572,1.5823,2.1798
2.1735,1.7911,1.5134,2.1197
2.2244,1.7272,1.4451,2.0642
2.2765,1.6706,1.3862,2.0134
2.3298,1.6225,1.339,1.966
2.3843,1.5807,1.3002,1.9218
2.4401,1.5427,1.265,1.8813
2.4973,1.5068,1.2319,1.8429
2.5557,1.4725,1.2025,1.8031
2.6155,1.4392,1.1777,1.7588
2.6768,1.4056,1.1546,1.711
2.7395,1.3701,1.1282,1.6638
2.8036,1.3321,1.0951,1.6203
2.8692,1.2924,1.0563,1.5811
2.9364,1.2516,1.0147,1.5439
3.0051,1.2098,0.9725,1.505
3.0755,1.1665,0.9311,1.4614
3.1475,1.1222,0.8911,1.4133
3.2212,1.0794,0.8539,1.3646
3.2966,1.0413,0.821,1.3207
3.3738,1.0101,0.7938,1.2852
3.4528,0.9857,0.7721,1.2584
3.5336,0.9664,0.7547,1.2375
3.6163,0.9499,0.7404,1.2187
3.701,0.9349,0.7284,1.2
3.7876,0.9213,0.7178,1.1824
3.8763,0.9097,0.708,1.1689
3.967,0.9011,0.6992,1.1613
4.0599,0.8967,0.6934,1.1595
4.155,0.8981,0.692,1.1655
4.2522,0.9068,0.695,1.1832
4.3518,0.9234,0.7009,1.2167
4.4537,0.947,0.7078,1.2671
4.5579,0.9753,0.7145,1.3313
4.6647,1.0047,0.7205,1.401
4.7739,1.0312,0.7261,1.4645
4.8856,1.0513,0.7313,1.5115
5.0,1.0638,0.7362,1.5373
