# hvsrpy output version 0.5.2
# File Name (),NA
# Method (),geometric-mean
# Azimuth (),0
# Window Length (s),1200.0
# Total Number of Windows (),72
# Frequency Domain Window Rejection Performed (),True
# Lower frequency limit for peaks (Hz),0.1
# Upper frequency limit for peaks (Hz),5.0
# Number of Standard Deviations Used for Rejection () [n],2
# Number of Accepted Windows (),55
# Number of Rejected Windows (),17
# Distribution of f0 (),lognormal
# Median f0 (Hz) [LMf0],1.2488
# Lognormal standard deviation f0 () [SigmaLNf0],0.1748
# 68 % Confidence Interval f0 (Hz),1.0486,to,1.4874
# Median T0 (s) [LMT0],0.8007
# Lognormal standard deviation T0 () [SigmaLNT0],0.1748
# 68 % Confidence Interval T0 (s),0.6723,to,0.9537
# Median Curve Distribution (),lognormal
# Median Curve Peak Frequency (Hz) [f0mc],1.3063
# Median Curve Peak Amplitude (),2.3209
# Frequency (Hz),Median Curve,1 STD Below Median Curve,1 STD Above Median Curve
0.05,1.7353,1.0604,2.8398
0.0512,1.8281,1.1094,3.0124
0.0524,1.9519,1.1628,3.2766
0.0536,2.1025,1.2255,3.6072
0.0548,2.2613,1.2909,3.961
0.0561,2.396,1.3493,4.2546
0.0574,2.4809,1.3959,4.4094
0.0588,2.5191,1.4292,4.4401
0.0602,2.5316,1.4505,4.4184
0.0616,2.5362,1.4654,4.3897
0.063,2.538,1.4806,4.3508
0.0645,2.5347,1.4976,4.2901
0.066,2.5266,1.5152,4.2128
0.0675,2.5174,1.5354,4.1275
0.0691,2.5044,1.5571,4.028
0.0707,2.4718,1.5672,3.8986
0.0724,2.4034,1.549,3.7292
0.0741,2.3,1.5048,3.5154
0.0758,2.1798,1.4552,3.2652
0.0776,2.0623,1.4146,3.0067
0.0794,1.9564,1.3789,2.7758
0.0813,1.8612,1.3358,2.5932
0.0832,1.7731,1.2811,2.4541
0.0851,1.6911,1.2261,2.3323
0.0871,1.6161,1.1858,2.2024
0.0892,1.5488,1.1617,2.065
0.0913,1.4867,1.1418,1.9358
0.0934,1.4249,1.1156,1.82
0.0956,1.3619,1.0818,1.7146
0.0978,1.3021,1.047,1.6195
0.1001,1.2534,1.0211,1.5386
0.1025,1.221,1.011,1.4746
0.1049,1.2031,1.0144,1.4269
0.1073,1.193,1.0199,1.3956
0.1098,1.1841,1.0162,1.3799
0.1124,1.1731,1.0034,1.3714
0.115,1.1595,0.9899,1.3581
0.1177,1.1447,0.9804,1.3365
0.1205,1.1301,0.9729,1.3126
0.1233,1.1166,0.9647,1.2925
0.1262,1.1058,0.9574,1.2773
0.1291,1.1006,0.9557,1.2676
0.1322,1.1046,0.9644,1.2651
0.1352,1.1193,0.9862,1.2705
0.1384,1.1436,1.0183,1.2843
0.1417,1.1743,1.0537,1.3086
0.145,1.2083,1.0876,1.3425
0.1484,1.2439,1.1214,1.3797
0.1518,1.2788,1.1543,1.4166
0.1554,1.3105,1.1801,1.4553
0.159,1.3367,1.197,1.4927
0.1628,1.3552,1.2102,1.5175
0.1666,1.3629,1.22,1.5224
0.1705,1.3553,1.2173,1.5089
0.1745,1.3293,1.193,1.4811
0.1785,1.2877,1.1513,1.4404
0.1827,1.2408,1.1058,1.3922
0.187,1.2005,1.0678,1.3498
0.1914,1.1748,1.0427,1.3237
0.1959,1.1647,1.0322,1.3143
0.2004,1.1666,1.0345,1.3156
0.2051,1.1755,1.0458,1.3213
0.2099,1.1883,1.0616,1.3301
0.2149,1.2046,1.0781,1.3459
0.2199,1.2249,1.0953,1.3699
0.225,1.2483,1.1161,1.3962
0.2303,1.2709,1.1419,1.4145
0.2357,1.2882,1.17,1.4184
0.2412,1.2991,1.1945,1.4129
0.2469,1.3082,1.2118,1.4121
0.2526,1.3233,1.2283,1.4255
0.2585,1.3514,1.2554,1.4548
0.2646,1.3951,1.2983,1.4991
0.2708,1.4509,1.3539,1.5549
0.2771,1.5118,1.4148,1.6155
0.2836,1.571,1.4752,1.673
0.2903,1.6251,1.5311,1.7248
0.2971,1.6749,1.5787,1.7769
0.304,1.7214,1.6165,1.8332
0.3111,1.7623,1.6459,1.8868
0.3184,1.7905,1.6643,1.9263
0.3259,1.799,1.6646,1.9443
0.3335,1.7863,1.6456,1.939
0.3413,1.7587,1.6158,1.9143
0.3493,1.7273,1.5874,1.8797
0.3575,1.7023,1.5705,1.8452
0.3658,1.6897,1.568,1.8207
0.3744,1.6905,1.5732,1.8165
0.3832,1.7015,1.5754,1.8376
0.3921,1.717,1.5755,1.8711
0.4013,1.7324,1.5813,1.8978
0.4107,1.7468,1.595,1.9131
0.4203,1.7618,1.6117,1.9259
0.4302,1.7762,1.625,1.9415
0.4402,1.7847,1.6323,1.9513
0.4506,1.7808,1.6317,1.9435
0.4611,1.7621,1.62,1.9167
0.4719,1.733,1.5977,1.8799
0.4829,1.7036,1.5723,1.8459
0.4942,1.6863,1.5567,1.8267
0.5058,1.6904,1.5609,1.8307
0.5177,1.7173,1.5874,1.8579
0.5298,1.7595,1.6302,1.8991
0.5422,1.8043,1.6751,1.9436
0.5549,1.8395,1.7059,1.9835
0.5679,1.8591,1.7183,2.0114
0.5812,1.8663,1.7191,2.0261
0.5948,1.8707,1.7176,2.0373
0.6087,1.882,1.7218,2.0571
0.6229,1.906,1.7359,2.0928
0.6375,1.9416,1.7617,2.1398
0.6525,1.9806,1.8012,2.1779
0.6677,2.011,1.851,2.1847
0.6834,2.0235,1.889,2.1676
0.6994,2.0193,1.8894,2.1582
0.7157,2.0091,1.8673,2.1617
0.7325,2.0055,1.8561,2.1669
0.7496,2.0145,1.8692,2.1711
0.7672,2.0327,1.9024,2.1719
0.7851,2.0517,1.9418,2.1678
0.8035,2.0661,1.9668,2.1704
0.8223,2.0782,1.9676,2.1949
0.8416,2.0952,1.9646,2.2346
0.8613,2.122,1.9812,2.2729
0.8815,2.1557,2.0231,2.2971
0.9021,2.1884,2.068,2.3158
0.9232,2.212,2.0802,2.352
0.9448,2.2211,2.0654,2.3887
0.9669,2.2147,2.0432,2.4006
0.9896,2.1965,2.0191,2.3894
1.0128,2.1741,1.9948,2.3696
1.0365,2.1556,1.9739,2.354
1.0607,2.1462,1.9613,2.3485
1.0856,2.1476,1.9599,2.3531
1.111,2.1581,1.9678,2.3668
1.137,2.1757,1.9782,2.3928
1.1636,2.1995,1.9877,2.4339
1.1908,2.2294,1.9991,2.4863
1.2187,2.2632,2.013,2.5444
1.2473,2.2951,2.0226,2.6044
1.2765,2.3169,2.0201,2.6573
1.3063,2.3209,2.0047,2.6871
1.3369,2.3054,1.9812,2.6826
1.3682,2.276,1.9536,2.6515
1.4003,2.2422,1.9259,2.6106
1.433,2.2116,1.9048,2.5678
1.4666,2.1861,1.8941,2.523
1.5009,2.1627,1.8875,2.478
1.5361,2.1366,1.8716,2.4391
1.572,2.1041,1.8388,2.4077
1.6088,2.066,1.7965,2.3759
1.6465,2.027,1.7583,2.3367
1.685,1.993,1.7329,2.2922
1.7245,1.9672,1.7182,2.2523
1.7649,1.9488,1.7016,2.2317
1.8062,1.9355,1.6715,2.2411
1.8485,1.9267,1.6306,2.2766
1.8917,1.9232,1.5918,2.3236
1.936,1.9256,1.5672,2.3661
1.9813,1.9332,1.5628,2.3914
2.0277,1.9431,1.577,2.3941
2.0752,1.9496,1.6002,2.3753
2.1238,1.9442,1.6177,2.3367
2.1735,1.9201,1.6175,2.2793
2.2244,1.8768,1.5961,2.2068
2.2765,1.8215,1.5565,2.1316
2.3298,1.7638,1.5048,2.0675
2.3843,1.71,1.4484,2.0187
2.4401,1.66,1.3929,1.9783
2.4973,1.6108,1.3393,1.9374
2.5557,1.5602,1.2869,1.8916
2.6155,1.5094,1.2373,1.8413
2.6768,1.4629,1.1947,1.7912
2.7395,1.4265,1.1626,1.7502
2.8036,1.404,1.1423,1.7257
2.8692,1.395,1.1327,1.7181
2.9364,1.3951,1.1294,1.7233
3.0051,1.3976,1.1271,1.733
3.0755,1.3962,1.1234,1.7353
3.1475,1.3882,1.1167,1.7257
3.2212,1.3745,1.1043,1.7107
3.2966,1.3581,1.087,1.6969
3.3738,1.3429,1.0694,1.6865
3.4528,1.3319,1.0561,1.6797
3.5336,1.3253,1.0486,1.675
3.6163,1.321,1.0458,1.6685
3.701,1.3164,1.0455,1.6574
3.7876,1.3102,1.0444,1.6435
3.8763,1.3024,1.0409,1.6296
3.967,1.2933,1.0356,1.6152
4.0599,1.2828,1.0295,1.5985
4.155,1.2697,1.0217,1.578
4.2522,1.2535,1.0118,1.553
4.3518,1.2348,1.0008,1.5233
4.4537,1.2156,0.9908,1.4914
4.5579,1.1983,0.9829,1.461
4.6647,1.1846,0.9775,1.4355
4.7739,1.1753,0.9744,1.4178
4.8856,1.1709,0.9728,1.4095
5.0,1.1721,0.9728,1.4123
