# hvsrpy output version 0.5.2
# File Name (),NA
# Method (),geometric-mean
# Azimuth (),0
# Window Length (s),1200.0
# Total Number of Windows (),72
# Frequency Domain Window Rejection Performed (),True
# Lower frequency limit for peaks (Hz),0.1
# Upper frequency limit for peaks (Hz),5.0
# Number of Standard Deviations Used for Rejection () [n],2
# Number of Accepted Windows (),59
# Number of Rejected Windows (),13
# Distribution of f0 (),lognormal
# Median f0 (Hz) [LMf0],1.1272
# Lognormal standard deviation f0 () [SigmaLNf0],0.1679
# 68 % Confidence Interval f0 (Hz),0.953,to,1.3332
# Median T0 (s) [LMT0],0.8871
# Lognormal standard deviation T0 () [SigmaLNT0],0.1679
# 68 % Confidence Interval T0 (s),0.7501,to,1.0493
# Median Curve Distribution (),lognormal
# Median Curve Peak Frequency (Hz) [f0mc],0.9448
# Median Curve Peak Amplitude (),2.2728
# Frequency (Hz),Median Curve,1 STD Below Median Curve,1 STD Above Median Curve
0.05,1.3881,0.8949,2.1531
0.0512,1.4563,0.9637,2.2006
0.0524,1.554,1.0621,2.2737
0.0536,1.6824,1.1871,2.3845
0.0548,1.8309,1.3388,2.5038
0.0561,1.9766,1.5081,2.5908
0.0574,2.0919,1.66,2.6362
0.0588,2.1587,1.7549,2.6554
0.0602,2.1806,1.7888,2.6582
0.0616,2.1784,1.7837,2.6603
0.063,2.1742,1.7698,2.6709
0.0645,2.182,1.774,2.6838
0.066,2.2047,1.802,2.6974
0.0675,2.2352,1.8414,2.7133
0.0691,2.26,1.8726,2.7275
0.0707,2.2611,1.8843,2.7132
0.0724,2.2224,1.8774,2.6308
0.0741,2.1396,1.8394,2.4888
0.0758,2.0227,1.7415,2.3492
0.0776,1.8883,1.5975,2.2322
0.0794,1.7523,1.4563,2.1084
0.0813,1.6252,1.341,1.9697
0.0832,1.5104,1.2507,1.8239
0.0851,1.4028,1.1765,1.6726
0.0871,1.2978,1.104,1.5256
0.0892,1.2018,1.0288,1.4039
0.0913,1.1255,0.9651,1.3126
0.0934,1.0728,0.9186,1.2528
0.0956,1.0421,0.8868,1.2246
0.0978,1.0296,0.8702,1.2182
0.1001,1.0285,0.8676,1.2192
0.1025,1.0302,0.8731,1.2157
0.1049,1.0269,0.8765,1.203
0.1073,1.014,0.8688,1.1835
0.1098,0.9922,0.8486,1.16
0.1124,0.9662,0.824,1.1329
0.115,0.9431,0.8039,1.1064
0.1177,0.9297,0.793,1.09
0.1205,0.9295,0.7935,1.0888
0.1233,0.9417,0.8071,1.0987
0.1262,0.9624,0.8325,1.1126
0.1291,0.988,0.8649,1.1287
0.1322,1.0172,0.8995,1.1503
0.1352,1.0507,0.9338,1.1823
0.1384,1.0906,0.9691,1.2273
0.1417,1.1374,1.0079,1.2836
0.145,1.1891,1.0526,1.3434
0.1484,1.2404,1.1037,1.3941
0.1518,1.2854,1.1551,1.4304
0.1554,1.3204,1.1974,1.4559
0.159,1.3445,1.2272,1.473
0.1628,1.359,1.245,1.4835
0.1666,1.365,1.2523,1.488
0.1705,1.3614,1.2505,1.482
0.1745,1.3454,1.2347,1.4661
0.1785,1.3166,1.2009,1.4435
0.1827,1.2798,1.1579,1.4146
0.187,1.2445,1.1196,1.3833
0.1914,1.2199,1.0954,1.3586
0.1959,1.2105,1.0881,1.3467
0.2004,1.2151,1.0959,1.3473
0.2051,1.2291,1.1133,1.3568
0.2099,1.2467,1.1332,1.3716
0.2149,1.2634,1.152,1.3856
0.2199,1.2765,1.1707,1.3917
0.225,1.2847,1.1893,1.3877
0.2303,1.2878,1.2025,1.3792
0.2357,1.2859,1.2044,1.373
0.2412,1.2805,1.1962,1.3708
0.2469,1.2762,1.1868,1.3722
0.2526,1.2794,1.1862,1.3799
0.2585,1.2962,1.2019,1.3979
0.2646,1.3293,1.2349,1.431
0.2708,1.3767,1.2787,1.4822
0.2771,1.4326,1.3247,1.5493
0.2836,1.4911,1.3694,1.6235
0.2903,1.5493,1.4149,1.6964
0.2971,1.6067,1.4639,1.7634
0.304,1.6618,1.5158,1.8218
0.3111,1.7085,1.5632,1.8673
0.3184,1.7372,1.5934,1.8939
0.3259,1.7411,1.5956,1.8998
0.3335,1.7225,1.5709,1.8886
0.3413,1.6915,1.5355,1.8633
0.3493,1.6603,1.5068,1.8293
0.3575,1.6389,1.4937,1.7982
0.3658,1.6334,1.4988,1.78
0.3744,1.6448,1.5213,1.7783
0.3832,1.6693,1.5554,1.7916
0.3921,1.7009,1.5929,1.8163
0.4013,1.7339,1.6249,1.8503
0.4107,1.7657,1.6477,1.8923
0.4203,1.7945,1.664,1.9352
0.4302,1.8164,1.6756,1.9689
0.4402,1.8261,1.6802,1.9847
0.4506,1.8199,1.6754,1.9769
0.4611,1.7995,1.6617,1.9488
0.4719,1.7729,1.6417,1.9147
0.4829,1.7525,1.6237,1.8917
0.4942,1.7495,1.621,1.8882
0.5058,1.7684,1.6426,1.9037
0.5177,1.8047,1.6837,1.9345
0.5298,1.8472,1.7278,1.9747
0.5422,1.8827,1.7596,2.0145
0.5549,1.9033,1.7715,2.0449
0.5679,1.9096,1.7676,2.063
0.5812,1.9098,1.7637,2.0681
0.5948,1.9142,1.7758,2.0633
0.6087,1.9289,1.8079,2.0579
0.6229,1.9542,1.8505,2.0636
0.6375,1.9856,1.8906,2.0853
0.6525,2.0165,1.9204,2.1174
0.6677,2.0407,1.936,2.1511
0.6834,2.0546,1.9377,2.1786
0.6994,2.0599,1.9331,2.195
0.7157,2.0633,1.9334,2.2018
0.7325,2.0725,1.9463,2.2069
0.7496,2.0902,1.9707,2.217
0.7672,2.111,1.9971,2.2314
0.7851,2.126,2.0147,2.2435
0.8035,2.1319,2.0205,2.2494
0.8223,2.1348,2.0238,2.2518
0.8416,2.1458,2.0376,2.2597
0.8613,2.1714,2.0653,2.2829
0.8815,2.2088,2.1012,2.3219
0.9021,2.247,2.1356,2.3642
0.9232,2.2718,2.1566,2.3931
0.9448,2.2728,2.1536,2.3985
0.9669,2.2485,2.1227,2.3817
0.9896,2.2082,2.0716,2.3538
1.0128,2.1682,2.0186,2.3288
1.0365,2.1437,1.9846,2.3157
1.0607,2.1419,1.982,2.3147
1.0856,2.1586,2.0088,2.3196
1.111,2.183,2.0478,2.3272
1.137,2.2056,2.0793,2.3396
1.1636,2.2239,2.0984,2.3568
1.1908,2.2403,2.1117,2.3767
1.2187,2.2554,2.1193,2.4003
1.2473,2.2652,2.1121,2.4294
1.2765,2.2648,2.0852,2.4599
1.3063,2.2537,2.0481,2.4799
1.3369,2.2344,2.0126,2.4806
1.3682,2.2086,1.9804,2.4631
1.4003,2.1763,1.9468,2.4328
1.433,2.1386,1.911,2.3933
1.4666,2.1007,1.8797,2.3476
1.5009,2.0685,1.8605,2.2997
1.5361,2.0421,1.8492,2.2552
1.572,2.0136,1.83,2.2156
1.6088,1.9722,1.7908,2.1719
1.6465,1.9149,1.7342,2.1143
1.685,1.8491,1.6688,2.049
1.7245,1.7866,1.6034,1.9907
1.7649,1.7344,1.5461,1.9457
1.8062,1.693,1.4995,1.9116
1.8485,1.6593,1.4614,1.8839
1.8917,1.6308,1.4298,1.8599
1.936,1.6083,1.4052,1.8408
1.9813,1.5939,1.3854,1.8337
2.0277,1.5873,1.3658,1.8447
2.0752,1.5837,1.3462,1.8631
2.1238,1.575,1.3311,1.8636
2.1735,1.5555,1.3183,1.8353
2.2244,1.5267,1.2988,1.7946
2.2765,1.4956,1.2713,1.7594
2.3298,1.469,1.2443,1.7343
2.3843,1.45,1.2246,1.7169
2.4401,1.437,1.2115,1.7046
2.4973,1.4266,1.1994,1.6968
2.5557,1.417,1.1856,1.6935
2.6155,1.4101,1.1745,1.6931
2.6768,1.4106,1.1755,1.6929
2.7395,1.4225,1.1948,1.6935
2.8036,1.4458,1.2292,1.7006
2.8692,1.4757,1.2663,1.7196
2.9364,1.5029,1.2934,1.7464
3.0051,1.5178,1.3066,1.7632
3.0755,1.5138,1.3055,1.7554
3.1475,1.4911,1.288,1.7262
3.2212,1.455,1.2577,1.6832
3.2966,1.4129,1.2225,1.6329
3.3738,1.3716,1.1871,1.5848
3.4528,1.3358,1.1537,1.5465
3.5336,1.3075,1.1255,1.5189
3.6163,1.2864,1.1055,1.4971
3.701,1.2714,1.0939,1.4776
3.7876,1.2608,1.0881,1.4609
3.8763,1.2536,1.0843,1.4495
3.967,1.2496,1.0799,1.4458
4.0599,1.2492,1.0749,1.4517
4.155,1.2537,1.0715,1.467
4.2522,1.2639,1.0722,1.49
4.3518,1.2792,1.0784,1.5174
4.4537,1.297,1.0894,1.5441
4.5579,1.3134,1.1026,1.5645
4.6647,1.3249,1.1148,1.5747
4.7739,1.3295,1.1232,1.5737
4.8856,1.3273,1.1266,1.5637
5.0,1.3206,1.1252,1.5499
