# hvsrpy output version 0.5.2
# File Name (),NA
# Method (),geometric-mean
# Azimuth (),0
# Window Length (s),1200.0
# Total Number of Windows (),72
# Frequency Domain Window Rejection Performed (),True
# Lower frequency limit for peaks (Hz),0.1
# Upper frequency limit for peaks (Hz),5.0
# Number of Standard Deviations Used for Rejection () [n],2
# Number of Accepted Windows (),50
# Number of Rejected Windows (),22
# Distribution of f0 (),lognormal
# Median f0 (Hz) [LMf0],1.3136
# Lognormal standard deviation f0 () [SigmaLNf0],0.09
# 68 % Confidence Interval f0 (Hz),1.2006,to,1.4373
# Median T0 (s) [LMT0],0.7613
# Lognormal standard deviation T0 () [SigmaLNT0],0.09
# 68 % Confidence Interval T0 (s),0.6957,to,0.8329
# Median Curve Distribution (),lognormal
# Median Curve Peak Frequency (Hz) [f0mc],1.3063
# Median Curve Peak Amplitude (),2.406
# Frequency (Hz),Median Curve,1 STD Below Median Curve,1 STD Above Median Curve
0.05,1.6078,1.0081,2.5644
0.0512,1.7296,1.0956,2.7305
0.0524,1.8861,1.2275,2.898
0.0536,2.0635,1.3923,3.0582
0.0548,2.246,1.5759,3.2011
0.0561,2.4198,1.7669,3.314
0.0574,2.5707,1.9411,3.4045
0.0588,2.6789,2.0713,3.4648
0.0602,2.7302,2.1472,3.4715
0.0616,2.7277,2.1673,3.4331
0.063,2.6893,2.1399,3.3797
0.0645,2.6402,2.0868,3.3404
0.066,2.605,2.0389,3.3282
0.0675,2.5918,2.0215,3.3229
0.0691,2.5859,2.0258,3.301
0.0707,2.5589,2.013,3.253
0.0724,2.4869,1.9587,3.1574
0.0741,2.3678,1.8706,2.9971
0.0758,2.2192,1.7649,2.7904
0.0776,2.0572,1.6561,2.5554
0.0794,1.8875,1.5488,2.3004
0.0813,1.7156,1.4361,2.0495
0.0832,1.5539,1.3183,1.8316
0.0851,1.4174,1.2104,1.6597
0.0871,1.313,1.124,1.5339
0.0892,1.2372,1.0548,1.4513
0.0913,1.1804,0.9944,1.4013
0.0934,1.1336,0.9424,1.3635
0.0956,1.0925,0.9028,1.3219
0.0978,1.0586,0.878,1.2764
0.1001,1.037,0.8692,1.2372
0.1025,1.0314,0.8786,1.2108
0.1049,1.0406,0.9042,1.1976
0.1073,1.0589,0.9344,1.2
0.1098,1.0793,0.9566,1.2179
0.1124,1.0969,0.971,1.239
0.115,1.1102,0.9818,1.2553
0.1177,1.1207,0.99,1.2687
0.1205,1.1297,0.9964,1.2808
0.1233,1.1367,1.0017,1.2897
0.1262,1.1417,1.0057,1.2961
0.1291,1.1472,1.0111,1.3017
0.1322,1.157,1.0227,1.309
0.1352,1.174,1.0399,1.3254
0.1384,1.1976,1.0582,1.3553
0.1417,1.2236,1.0766,1.3905
0.145,1.2478,1.0968,1.4195
0.1484,1.2697,1.1186,1.4413
0.1518,1.2921,1.1426,1.4611
0.1554,1.3173,1.1728,1.4796
0.159,1.3453,1.2104,1.4953
0.1628,1.3722,1.2448,1.5127
0.1666,1.3884,1.2596,1.5304
0.1705,1.3828,1.249,1.5309
0.1745,1.3506,1.2157,1.5005
0.1785,1.2978,1.1658,1.4448
0.1827,1.2373,1.1088,1.3808
0.187,1.1827,1.0558,1.3248
0.1914,1.1435,1.0169,1.2858
0.1959,1.1243,0.9981,1.2665
0.2004,1.1245,0.9998,1.2648
0.2051,1.1398,1.0176,1.2766
0.2099,1.1643,1.044,1.2984
0.2149,1.1934,1.0735,1.3266
0.2199,1.2235,1.105,1.3548
0.225,1.2513,1.1366,1.3776
0.2303,1.273,1.1607,1.3962
0.2357,1.2859,1.1709,1.4122
0.2412,1.291,1.1727,1.4212
0.2469,1.2936,1.1774,1.4212
0.2526,1.3009,1.1903,1.4218
0.2585,1.3195,1.2097,1.4393
0.2646,1.3528,1.2369,1.4795
0.2708,1.3997,1.2777,1.5334
0.2771,1.4556,1.3331,1.5894
0.2836,1.5143,1.3957,1.6429
0.2903,1.571,1.4536,1.698
0.2971,1.6234,1.4985,1.7586
0.304,1.6705,1.5342,1.819
0.3111,1.7115,1.5682,1.868
0.3184,1.7437,1.6022,1.8976
0.3259,1.7628,1.631,1.9052
0.3335,1.7661,1.6451,1.8959
0.3413,1.755,1.6391,1.8791
0.3493,1.736,1.6194,1.861
0.3575,1.7186,1.6003,1.8458
0.3658,1.7109,1.5934,1.837
0.3744,1.7149,1.6031,1.8346
0.3832,1.7273,1.6227,1.8385
0.3921,1.7432,1.6391,1.8539
0.4013,1.7609,1.6482,1.8813
0.4107,1.781,1.658,1.9131
0.4203,1.8027,1.6697,1.9463
0.4302,1.8216,1.6763,1.9796
0.4402,1.8313,1.6747,2.0025
0.4506,1.8272,1.6671,2.0027
0.4611,1.8106,1.6553,1.9805
0.4719,1.7892,1.6409,1.9509
0.4829,1.7739,1.6291,1.9316
0.4942,1.7726,1.6297,1.9279
0.5058,1.786,1.6492,1.9342
0.5177,1.8085,1.6827,1.9436
0.5298,1.8314,1.7171,1.9533
0.5422,1.8484,1.7408,1.9625
0.5549,1.8578,1.7529,1.969
0.5679,1.8632,1.7591,1.9735
0.5812,1.8706,1.7647,1.9829
0.5948,1.8853,1.774,2.0036
0.6087,1.9106,1.7914,2.0377
0.6229,1.9464,1.8187,2.083
0.6375,1.99,1.8553,2.1344
0.6525,2.0354,1.8963,2.1848
0.6677,2.0738,1.9329,2.225
0.6834,2.0959,1.957,2.2447
0.6994,2.099,1.966,2.241
0.7157,2.091,1.9657,2.2244
0.7325,2.0869,1.9687,2.2122
0.7496,2.0976,1.987,2.2143
0.7672,2.1218,2.0212,2.2274
0.7851,2.1482,2.0556,2.2449
0.8035,2.1652,2.0696,2.2651
0.8223,2.1703,2.0645,2.2815
0.8416,2.1698,2.0569,2.2889
0.8613,2.172,2.0579,2.2925
0.8815,2.1816,2.0711,2.298
0.9021,2.1983,2.0936,2.3082
0.9232,2.2183,2.1087,2.3335
0.9448,2.2358,2.0997,2.3807
0.9669,2.2449,2.0768,2.4266
0.9896,2.2432,2.0597,2.443
1.0128,2.2354,2.0592,2.4266
1.0365,2.2307,2.073,2.4005
1.0607,2.2359,2.0911,2.3908
1.0856,2.2507,2.1087,2.4021
1.111,2.2695,2.122,2.4272
1.137,2.2878,2.1259,2.462
1.1636,2.3063,2.131,2.496
1.1908,2.3286,2.1534,2.5179
1.2187,2.3558,2.1939,2.5297
1.2473,2.383,2.23,2.5466
1.2765,2.4017,2.2349,2.5809
1.3063,2.406,2.2106,2.6187
1.3369,2.3976,2.176,2.6417
1.3682,2.3826,2.1435,2.6482
1.4003,2.3652,2.1197,2.6392
1.433,2.3463,2.1031,2.6176
1.4666,2.3259,2.0839,2.596
1.5009,2.3042,2.0551,2.5835
1.5361,2.2798,2.0174,2.5764
1.572,2.2501,1.9745,2.5642
1.6088,2.2136,1.9318,2.5364
1.6465,2.1718,1.8938,2.4906
1.685,2.1289,1.8617,2.4346
1.7245,2.0897,1.8321,2.3835
1.7649,2.0581,1.8002,2.3528
1.8062,2.0372,1.7675,2.3481
1.8485,2.0273,1.7431,2.358
1.8917,2.0248,1.7345,2.3637
1.936,2.0219,1.7374,2.3531
1.9813,2.0111,1.7386,2.3264
2.0277,1.9894,1.7288,2.2893
2.0752,1.9601,1.7077,2.2498
2.1238,1.9291,1.6791,2.2164
2.1735,1.9003,1.6464,2.1934
2.2244,1.8745,1.6124,2.1792
2.2765,1.851,1.5791,2.1697
2.3298,1.8286,1.5474,2.1608
2.3843,1.8057,1.5156,2.1514
2.4401,1.7808,1.4808,2.1415
2.4973,1.7525,1.4432,2.128
2.5557,1.7205,1.406,2.1053
2.6155,1.6866,1.372,2.0733
2.6768,1.654,1.3421,2.0383
2.7395,1.6262,1.3161,2.0095
2.8036,1.6049,1.2928,1.9923
2.8692,1.5888,1.2718,1.9847
2.9364,1.5741,1.2535,1.9766
3.0051,1.5558,1.2375,1.956
3.0755,1.5303,1.2225,1.9155
3.1475,1.4966,1.2073,1.8552
3.2212,1.4567,1.191,1.7816
3.2966,1.414,1.1718,1.7062
3.3738,1.3727,1.1479,1.6415
3.4528,1.3358,1.12,1.5932
3.5336,1.3043,1.0915,1.5587
3.6163,1.2778,1.0655,1.5323
3.701,1.2549,1.0429,1.51
3.7876,1.2346,1.0232,1.4897
3.8763,1.2164,1.0059,1.4708
3.967,1.2001,0.9902,1.4544
4.0599,1.1865,0.9756,1.4429
4.155,1.177,0.9623,1.4395
4.2522,1.1731,0.9515,1.4465
4.3518,1.1759,0.9443,1.4643
4.4537,1.1853,0.9413,1.4924
4.5579,1.2001,0.9415,1.5298
4.6647,1.2188,0.9443,1.5732
4.7739,1.239,0.9497,1.6165
4.8856,1.2583,0.9578,1.6531
5.0,1.2748,0.9673,1.6801
