# hvsrpy output version 0.5.2
# File Name (),NA
# Method (),geometric-mean
# Azimuth (),0
# Window Length (s),1200.0
# Total Number of Windows (),72
# Frequency Domain Window Rejection Performed (),True
# Lower frequency limit for peaks (Hz),0.1
# Upper frequency limit for peaks (Hz),5.0
# Number of Standard Deviations Used for Rejection () [n],2
# Number of Accepted Windows (),62
# Number of Rejected Windows (),10
# Distribution of f0 (),lognormal
# Median f0 (Hz) [LMf0],1.1798
# Lognormal standard deviation f0 () [SigmaLNf0],0.1623
# 68 % Confidence Interval f0 (Hz),1.0031,to,1.3876
# Median T0 (s) [LMT0],0.8476
# Lognormal standard deviation T0 () [SigmaLNT0],0.1623
# 68 % Confidence Interval T0 (s),0.7207,to,0.9969
# Median Curve Distribution (),lognormal
# Median Curve Peak Frequency (Hz) [f0mc],1.2765
# Median Curve Peak Amplitude (),2.3019
# Frequency (Hz),Median Curve,1 STD Below Median Curve,1 STD Above Median Curve
0.05,1.687,1.0072,2.8257
0.0512,1.7336,1.055,2.8489
0.0524,1.7677,1.1059,2.8256
0.0536,1.8099,1.1571,2.8312
0.0548,1.8759,1.2186,2.8878
0.0561,1.9666,1.3051,2.9633
0.0574,2.0716,1.4257,3.0102
0.0588,2.1818,1.5742,3.0239
0.0602,2.2916,1.7285,3.0382
0.0616,2.3936,1.8541,3.09
0.063,2.476,1.9361,3.1665
0.0645,2.5266,1.993,3.2029
0.066,2.5393,2.0377,3.1643
0.0675,2.5153,2.0567,3.0761
0.0691,2.4565,2.0362,2.9634
0.0707,2.362,1.9761,2.8231
0.0724,2.2332,1.878,2.6556
0.0741,2.0801,1.7484,2.4746
0.0758,1.9183,1.6074,2.2893
0.0776,1.7619,1.4766,2.1023
0.0794,1.6213,1.3677,1.9219
0.0813,1.5039,1.2804,1.7663
0.0832,1.4124,1.2085,1.6507
0.0851,1.3439,1.1484,1.5727
0.0871,1.2926,1.1012,1.5173
0.0892,1.2521,1.0673,1.469
0.0913,1.2176,1.0441,1.42
0.0934,1.187,1.0269,1.3721
0.0956,1.1612,1.0122,1.3322
0.0978,1.1433,1.001,1.3058
0.1001,1.1363,0.9973,1.2946
0.1025,1.1429,1.0021,1.3036
0.1049,1.1646,1.0141,1.3373
0.1073,1.1989,1.0354,1.3883
0.1098,1.2385,1.0644,1.441
0.1124,1.2715,1.0918,1.4807
0.115,1.2856,1.105,1.4958
0.1177,1.2729,1.0963,1.4779
0.1205,1.2365,1.0687,1.4308
0.1233,1.1917,1.0316,1.3766
0.1262,1.1547,0.9992,1.3343
0.1291,1.1344,0.9853,1.3061
0.1322,1.1323,0.9922,1.2922
0.1352,1.1453,1.0109,1.2975
0.1384,1.168,1.0331,1.3205
0.1417,1.1962,1.058,1.3524
0.145,1.2273,1.0848,1.3885
0.1484,1.2595,1.1107,1.4283
0.1518,1.2904,1.1347,1.4673
0.1554,1.3173,1.1586,1.4978
0.159,1.3391,1.1827,1.5162
0.1628,1.3549,1.2035,1.5255
0.1666,1.3626,1.2162,1.5266
0.1705,1.3577,1.2167,1.5151
0.1745,1.3365,1.1994,1.4894
0.1785,1.3006,1.1618,1.456
0.1827,1.2573,1.1137,1.4193
0.187,1.217,1.0721,1.3814
0.1914,1.1885,1.0475,1.3484
0.1959,1.1759,1.0413,1.328
0.2004,1.1782,1.0487,1.3238
0.2051,1.1902,1.0637,1.3317
0.2099,1.2055,1.0821,1.3431
0.2149,1.2202,1.1012,1.352
0.2199,1.2329,1.1193,1.3581
0.225,1.2435,1.136,1.3612
0.2303,1.2516,1.1511,1.361
0.2357,1.2573,1.1617,1.3607
0.2412,1.2618,1.1661,1.3653
0.2469,1.2682,1.1684,1.3764
0.2526,1.281,1.1759,1.3955
0.2585,1.3052,1.1953,1.4251
0.2646,1.3447,1.2316,1.4682
0.2708,1.4006,1.2854,1.5262
0.2771,1.4691,1.3526,1.5957
0.2836,1.5425,1.4281,1.6661
0.2903,1.6126,1.5054,1.7275
0.2971,1.6751,1.5736,1.7831
0.304,1.7296,1.6231,1.8432
0.3111,1.7761,1.6575,1.9031
0.3184,1.8108,1.6849,1.946
0.3259,1.8267,1.7023,1.9602
0.3335,1.8194,1.6982,1.9492
0.3413,1.7927,1.6687,1.9258
0.3493,1.7576,1.6278,1.8977
0.3575,1.7265,1.5941,1.8698
0.3658,1.7079,1.5784,1.8481
0.3744,1.705,1.5817,1.8379
0.3832,1.716,1.5973,1.8435
0.3921,1.737,1.6162,1.8668
0.4013,1.7644,1.6368,1.902
0.4107,1.7955,1.6618,1.9399
0.4203,1.8264,1.6888,1.9751
0.4302,1.8512,1.711,2.0028
0.4402,1.8631,1.7217,2.0161
0.4506,1.858,1.7176,2.0099
0.4611,1.8371,1.7004,1.9848
0.4719,1.8075,1.677,1.9481
0.4829,1.7802,1.6559,1.9138
0.4942,1.7658,1.6451,1.8954
0.5058,1.7699,1.6505,1.898
0.5177,1.7908,1.6731,1.9169
0.5298,1.8204,1.7057,1.9428
0.5422,1.8487,1.7364,1.9683
0.5549,1.8685,1.7568,1.9872
0.5679,1.8778,1.7664,1.9961
0.5812,1.8797,1.7686,1.9978
0.5948,1.8806,1.7675,2.0009
0.6087,1.8873,1.7708,2.0114
0.6229,1.9048,1.788,2.0291
0.6375,1.935,1.8237,2.0531
0.6525,1.9747,1.8689,2.0865
0.6677,2.0148,1.9062,2.1296
0.6834,2.0439,1.9267,2.1683
0.6994,2.0566,1.9338,2.1871
0.7157,2.0584,1.9352,2.1895
0.7325,2.0617,1.9401,2.1908
0.7496,2.0742,1.9558,2.1999
0.7672,2.094,1.9814,2.2131
0.7851,2.1125,2.0073,2.2232
0.8035,2.1236,2.023,2.2292
0.8223,2.1299,2.0286,2.2363
0.8416,2.1395,2.0355,2.2489
0.8613,2.1589,2.0536,2.2696
0.8815,2.1878,2.082,2.299
0.9021,2.2198,2.111,2.3342
0.9232,2.2453,2.1317,2.365
0.9448,2.2553,2.1394,2.3774
0.9669,2.2452,2.1302,2.3664
0.9896,2.218,2.1034,2.3388
1.0128,2.1835,2.0688,2.3046
1.0365,2.1544,2.0424,2.2726
1.0607,2.14,2.0345,2.251
1.0856,2.143,2.0456,2.2451
1.111,2.16,2.0692,2.2546
1.137,2.1856,2.0967,2.2784
1.1636,2.2163,2.1227,2.3141
1.1908,2.249,2.1465,2.3563
1.2187,2.2785,2.1667,2.3962
1.2473,2.2978,2.1801,2.4219
1.2765,2.3019,2.1852,2.4249
1.3063,2.2927,2.1817,2.4092
1.3369,2.2767,2.1687,2.39
1.3682,2.2591,2.1468,2.3773
1.4003,2.2405,2.1187,2.3694
1.433,2.2196,2.0837,2.3643
1.4666,2.1968,2.0396,2.3662
1.5009,2.1745,1.987,2.3797
1.5361,2.1518,1.9277,2.402
1.572,2.1221,1.8635,2.4167
1.6088,2.0765,1.7956,2.4013
1.6465,2.0126,1.7234,2.3504
1.685,1.9397,1.6476,2.2835
1.7245,1.8732,1.5758,2.2266
1.7649,1.826,1.521,2.1922
1.8062,1.803,1.4914,2.1798
1.8485,1.8004,1.4845,2.1834
1.8917,1.8078,1.4894,2.1943
1.936,1.8138,1.4936,2.2026
1.9813,1.8117,1.4897,2.2032
2.0277,1.8022,1.4778,2.1977
2.0752,1.7901,1.4638,2.189
2.1238,1.7781,1.4531,2.1756
2.1735,1.7636,1.445,2.1525
2.2244,1.7416,1.4335,2.1159
2.2765,1.7087,1.4113,2.0688
2.3298,1.6662,1.3754,2.0185
2.3843,1.6188,1.3304,1.9698
2.4401,1.5721,1.2852,1.923
2.4973,1.5293,1.2461,1.8768
2.5557,1.4922,1.2145,1.8335
2.6155,1.4628,1.1895,1.7989
2.6768,1.4431,1.1721,1.7768
2.7395,1.4345,1.1651,1.7661
2.8036,1.436,1.1693,1.7637
2.8692,1.4436,1.1794,1.7671
2.9364,1.4505,1.1852,1.7752
3.0051,1.4497,1.178,1.784
3.0755,1.437,1.1567,1.7853
3.1475,1.4132,1.1268,1.7725
3.2212,1.3829,1.0956,1.7455
3.2966,1.3522,1.0686,1.711
3.3738,1.3262,1.048,1.6783
3.4528,1.3077,1.034,1.6539
3.5336,1.2972,1.0264,1.6395
3.6163,1.2925,1.0232,1.6328
3.701,1.2902,1.0211,1.6301
3.7876,1.2864,1.017,1.6272
3.8763,1.2791,1.0092,1.6211
3.967,1.2672,0.9972,1.6102
4.0599,1.2508,0.9816,1.594
4.155,1.2311,0.9643,1.5718
4.2522,1.2103,0.9487,1.544
4.3518,1.1908,0.9372,1.5132
4.4537,1.1739,0.9303,1.4812
4.5579,1.1591,0.9272,1.4491
4.6647,1.1458,0.925,1.4194
4.7739,1.1338,0.9211,1.3956
4.8856,1.1232,0.9151,1.3787
5.0,1.1154,0.9096,1.3677
