# hvsrpy output version 0.5.2
# File Name (),NA
# Method (),geometric-mean
# Azimuth (),0
# Window Length (s),1200.0
# Total Number of Windows (),72
# Frequency Domain Window Rejection Performed (),True
# Lower frequency limit for peaks (Hz),0.1
# Upper frequency limit for peaks (Hz),5.0
# Number of Standard Deviations Used for Rejection () [n],2
# Number of Accepted Windows (),43
# Number of Rejected Windows (),29
# Distribution of f0 (),lognormal
# Median f0 (Hz) [LMf0],0.4344
# Lognormal standard deviation f0 () [SigmaLNf0],0.0227
# 68 % Confidence Interval f0 (Hz),0.4246,to,0.4443
# Median T0 (s) [LMT0],2.3022
# Lognormal standard deviation T0 () [SigmaLNT0],0.0227
# 68 % Confidence Interval T0 (s),2.2505,to,2.3551
# Median Curve Distribution (),lognormal
# Median Curve Peak Frequency (Hz) [f0mc],0.4302
# Median Curve Peak Amplitude (),2.5187
# Frequency (Hz),Median Curve,1 STD Below Median Curve,1 STD Above Median Curve
0.05,1.6046,1.2182,2.1137
0.0512,1.6318,1.2277,2.169
0.0524,1.6392,1.2169,2.2079
0.0536,1.6282,1.2039,2.2019
0.0548,1.6076,1.1989,2.1555
0.0561,1.5874,1.2013,2.0975
0.0574,1.5787,1.2105,2.059
0.0588,1.59,1.2303,2.055
0.0602,1.6198,1.2634,2.0768
0.0616,1.6584,1.3076,2.1033
0.063,1.6967,1.3535,2.1271
0.0645,1.7297,1.3896,2.1532
0.066,1.7558,1.4138,2.1805
0.0675,1.7762,1.4291,2.2077
0.0691,1.7885,1.4327,2.2328
0.0707,1.7814,1.4183,2.2374
0.0724,1.7435,1.3843,2.1961
0.0741,1.6788,1.3386,2.1056
0.0758,1.604,1.291,1.9929
0.0776,1.5328,1.243,1.8901
0.0794,1.4703,1.194,1.8107
0.0813,1.4177,1.1493,1.7488
0.0832,1.3741,1.1168,1.6908
0.0851,1.339,1.0994,1.6306
0.0871,1.3115,1.0931,1.5735
0.0892,1.2898,1.0908,1.5251
0.0913,1.2707,1.0863,1.4864
0.0934,1.2531,1.0768,1.4582
0.0956,1.239,1.0654,1.4408
0.0978,1.2306,1.0584,1.4308
0.1001,1.2258,1.0587,1.4193
0.1025,1.2193,1.0619,1.3999
0.1049,1.2065,1.0555,1.3791
0.1073,1.1863,1.0336,1.3617
0.1098,1.1611,1.0038,1.3431
0.1124,1.1375,0.9748,1.3275
0.115,1.1232,0.9534,1.3232
0.1177,1.121,0.9458,1.3285
0.1205,1.1279,0.9523,1.3359
0.1233,1.139,0.9675,1.3407
0.1262,1.1494,0.9846,1.3417
0.1291,1.1563,0.9984,1.3391
0.1322,1.1594,1.0076,1.3342
0.1352,1.1606,1.014,1.3284
0.1384,1.1609,1.0197,1.3216
0.1417,1.1591,1.0239,1.3121
0.145,1.1526,1.0241,1.2972
0.1484,1.1398,1.0187,1.2755
0.1518,1.1225,1.0097,1.248
0.1554,1.1066,1.0029,1.2211
0.159,1.0992,1.0035,1.2039
0.1628,1.1041,1.0134,1.2029
0.1666,1.1209,1.029,1.221
0.1705,1.1453,1.044,1.2564
0.1745,1.1718,1.0545,1.3023
0.1785,1.1968,1.0625,1.3482
0.1827,1.2204,1.0743,1.3864
0.187,1.2452,1.0959,1.415
0.1914,1.2734,1.1293,1.4359
0.1959,1.305,1.17,1.4555
0.2004,1.3386,1.2087,1.4824
0.2051,1.3726,1.2413,1.5177
0.2099,1.4062,1.2738,1.5524
0.2149,1.4408,1.3114,1.5829
0.2199,1.4781,1.3526,1.6151
0.225,1.5182,1.3935,1.654
0.2303,1.5581,1.4313,1.6961
0.2357,1.5922,1.4627,1.7332
0.2412,1.6171,1.485,1.7609
0.2469,1.635,1.5019,1.7798
0.2526,1.6533,1.5213,1.7968
0.2585,1.6791,1.5469,1.8226
0.2646,1.7142,1.5768,1.8637
0.2708,1.7556,1.6078,1.9168
0.2771,1.7986,1.6401,1.9725
0.2836,1.8421,1.6777,2.0225
0.2903,1.8872,1.7238,2.0661
0.2971,1.9346,1.7736,2.1102
0.304,1.9812,1.8175,2.1597
0.3111,2.0233,1.8519,2.2104
0.3184,2.0596,1.8813,2.2549
0.3259,2.0926,1.9108,2.2917
0.3335,2.1223,1.9391,2.3228
0.3413,2.1427,1.9583,2.3444
0.3493,2.1459,1.9616,2.3475
0.3575,2.132,1.9534,2.3268
0.3658,2.1128,1.9477,2.2918
0.3744,2.1061,1.9585,2.2649
0.3832,2.1277,1.9937,2.2707
0.3921,2.1854,2.0545,2.3246
0.4013,2.2755,2.1358,2.4245
0.4107,2.3806,2.2282,2.5435
0.4203,2.4717,2.3143,2.6398
0.4302,2.5187,2.3658,2.6815
0.4402,2.5048,2.3561,2.6629
0.4506,2.4345,2.2842,2.5947
0.4611,2.3301,2.1791,2.4917
0.4719,2.2187,2.0725,2.3752
0.4829,2.1197,1.9817,2.2674
0.4942,2.0415,1.9112,2.1807
0.5058,1.9843,1.8589,2.118
0.5177,1.9433,1.8183,2.0769
0.5298,1.9109,1.7809,2.0503
0.5422,1.8787,1.7418,2.0263
0.5549,1.8411,1.7005,1.9934
0.5679,1.7974,1.6591,1.9472
0.5812,1.7505,1.6203,1.8911
0.5948,1.7052,1.587,1.8322
0.6087,1.6664,1.5591,1.7812
0.6229,1.6383,1.5331,1.7508
0.6375,1.6241,1.512,1.7445
0.6525,1.6268,1.5082,1.7547
0.6677,1.6492,1.5311,1.7764
0.6834,1.6915,1.5792,1.8117
0.6994,1.7493,1.6428,1.8626
0.7157,1.8134,1.7094,1.9236
0.7325,1.8737,1.7683,1.9854
0.7496,1.9232,1.8138,2.0393
0.7672,1.9587,1.8453,2.0791
0.7851,1.9788,1.8629,2.102
0.8035,1.9825,1.866,2.1064
0.8223,1.9704,1.8561,2.0917
0.8416,1.9477,1.8392,2.0625
0.8613,1.9246,1.8245,2.0302
0.8815,1.9127,1.8205,2.0096
0.9021,1.9193,1.83,2.0129
0.9232,1.9446,1.852,2.0417
0.9448,1.9823,1.8848,2.0847
0.9669,2.0235,1.9247,2.1273
0.9896,2.0607,1.9643,2.1618
1.0128,2.0882,1.9918,2.1893
1.0365,2.1003,1.9978,2.208
1.0607,2.0908,1.9817,2.2058
1.0856,2.0567,1.9463,2.1734
1.111,2.0017,1.893,2.1167
1.137,1.9346,1.8247,2.051
1.1636,1.8661,1.7505,1.9892
1.1908,1.8063,1.6837,1.9378
1.2187,1.7642,1.6362,1.9022
1.2473,1.7453,1.6146,1.8866
1.2765,1.7491,1.618,1.8909
1.3063,1.7684,1.6393,1.9077
1.3369,1.7922,1.6675,1.9262
1.3682,1.8127,1.6932,1.9407
1.4003,1.8287,1.7114,1.9541
1.433,1.8441,1.7237,1.9729
1.4666,1.8632,1.7369,1.9987
1.5009,1.8892,1.7583,2.0299
1.5361,1.924,1.7897,2.0684
1.572,1.9666,1.826,2.1181
1.6088,2.011,1.8618,2.1721
1.6465,2.0457,1.8933,2.2105
1.685,2.06,1.9111,2.2205
1.7245,2.0519,1.9044,2.2108
1.7649,2.0304,1.8779,2.1953
1.8062,2.0082,1.8479,2.1825
1.8485,1.994,1.8236,2.1803
1.8917,1.9883,1.8053,2.1899
1.936,1.9855,1.7913,2.2007
1.9813,1.977,1.7764,2.2003
2.0277,1.9567,1.7525,2.1846
2.0752,1.9237,1.7144,2.1587
2.1238,1.8831,1.6653,2.1293
2.1735,1.8429,1.6168,2.1006
2.2244,1.8102,1.5806,2.0731
2.2765,1.7879,1.5624,2.0461
2.3298,1.7751,1.5611,2.0184
2.3843,1.7686,1.5709,1.9912
2.4401,1.7648,1.5831,1.9672
2.4973,1.7599,1.5897,1.9484
2.5557,1.7508,1.5842,1.9349
2.6155,1.7347,1.5644,1.9236
2.6768,1.7102,1.5343,1.9064
2.7395,1.6778,1.4994,1.8774
2.8036,1.6395,1.4622,1.8384
2.8692,1.5982,1.4218,1.7965
2.9364,1.5563,1.3782,1.7574
3.0051,1.5146,1.3329,1.7212
3.0755,1.4726,1.2873,1.6846
3.1475,1.4296,1.2414,1.6464
3.2212,1.387,1.1954,1.6093
3.2966,1.3486,1.1512,1.5799
3.3738,1.3184,1.1115,1.5638
3.4528,1.2975,1.0788,1.5607
3.5336,1.2829,1.0531,1.5628
3.6163,1.2686,1.0318,1.5597
3.701,1.25,1.0116,1.5445
3.7876,1.2268,0.9914,1.5181
3.8763,1.2026,0.9721,1.4878
3.967,1.182,0.9558,1.4617
4.0599,1.1674,0.945,1.4422
4.155,1.1584,0.943,1.4231
4.2522,1.1541,0.9514,1.4001
4.3518,1.1558,0.9664,1.3822
4.4537,1.1665,0.9812,1.3868
4.5579,1.1888,0.9938,1.422
4.6647,1.2223,1.0091,1.4806
4.7739,1.2644,1.0326,1.5482
4.8856,1.3116,1.0677,1.6112
5.0,1.3614,1.1158,1.6611
