# hvsrpy output version 0.5.2
# File Name (),NA
# Method (),geometric-mean
# Azimuth (),0
# Window Length (s),1200.0
# Total Number of Windows (),72
# Frequency Domain Window Rejection Performed (),True
# Lower frequency limit for peaks (Hz),0.1
# Upper frequency limit for peaks (Hz),10.0
# Number of Standard Deviations Used for Rejection () [n],2
# Number of Accepted Windows (),56
# Number of Rejected Windows (),16
# Distribution of f0 (),lognormal
# Median f0 (Hz) [LMf0],6.4204
# Lognormal standard deviation f0 () [SigmaLNf0],0.0224
# 68 % Confidence Interval f0 (Hz),6.2783,to,6.5657
# Median T0 (s) [LMT0],0.1558
# Lognormal standard deviation T0 () [SigmaLNT0],0.0224
# 68 % Confidence Interval T0 (s),0.1523,to,0.1593
# Median Curve Distribution (),lognormal
# Median Curve Peak Frequency (Hz) [f0mc],6.3596
# Median Curve Peak Amplitude (),4.2347
# Frequency (Hz),Median Curve,1 STD Below Median Curve,1 STD Above Median Curve
0.05,0.8366,0.6282,1.1142
0.0513,0.8258,0.6282,1.0855
0.0527,0.8197,0.6241,1.0765
0.0542,0.8195,0.6172,1.0882
0.0556,0.8257,0.6156,1.1075
0.0571,0.8371,0.622,1.1267
0.0587,0.8495,0.63,1.1454
0.0602,0.8575,0.6363,1.1557
0.0619,0.859,0.6381,1.1565
0.0635,0.855,0.6309,1.1589
0.0653,0.8497,0.6165,1.1713
0.067,0.8474,0.6031,1.1906
0.0688,0.849,0.5983,1.2048
0.0707,0.8543,0.6051,1.206
0.0726,0.8636,0.6233,1.1966
0.0745,0.8756,0.6467,1.1853
0.0766,0.885,0.6676,1.1731
0.0786,0.8882,0.6842,1.1529
0.0807,0.8867,0.6972,1.1278
0.0829,0.8836,0.7077,1.1034
0.0852,0.8807,0.7148,1.085
0.0875,0.879,0.7121,1.085
0.0898,0.8791,0.7001,1.1039
0.0922,0.8802,0.6876,1.1267
0.0947,0.8804,0.6795,1.1407
0.0973,0.8773,0.6771,1.1367
0.0999,0.8695,0.6803,1.1112
0.1026,0.8601,0.6883,1.0747
0.1054,0.8562,0.7038,1.0415
0.1082,0.8623,0.7267,1.0232
0.1111,0.8772,0.7499,1.0262
0.1141,0.8953,0.7684,1.0431
0.1172,0.9098,0.7823,1.0581
0.1204,0.9181,0.7926,1.0636
0.1236,0.924,0.8011,1.0658
0.127,0.9335,0.81,1.0759
0.1304,0.9487,0.8225,1.0943
0.1339,0.967,0.841,1.1118
0.1375,0.9842,0.8608,1.1253
0.1412,0.9979,0.873,1.1407
0.145,1.0099,0.879,1.1602
0.149,1.0247,0.8902,1.1796
0.153,1.0439,0.9114,1.1958
0.1571,1.0606,0.9328,1.2058
0.1613,1.0642,0.9385,1.2066
0.1657,1.05,0.9248,1.1921
0.1702,1.0226,0.9026,1.1587
0.1748,0.9921,0.8821,1.1157
0.1795,0.9689,0.871,1.0779
0.1843,0.9601,0.8727,1.0561
0.1893,0.9651,0.8811,1.0571
0.1944,0.9758,0.8822,1.0793
0.1996,0.9806,0.8738,1.1003
0.205,0.973,0.8657,1.0936
0.2106,0.9575,0.863,1.0623
0.2162,0.9459,0.8626,1.0372
0.2221,0.9492,0.8658,1.0406
0.2281,0.9724,0.8837,1.07
0.2342,1.0104,0.9163,1.1142
0.2405,1.0472,0.9473,1.1576
0.247,1.0629,0.9581,1.1793
0.2537,1.051,0.9453,1.1685
0.2605,1.0241,0.9219,1.1377
0.2676,1.0008,0.9039,1.108
0.2748,0.9904,0.8998,1.0902
0.2822,0.9917,0.907,1.0842
0.2898,0.9983,0.9168,1.0871
0.2976,1.0048,0.9223,1.0946
0.3057,1.007,0.9217,1.1002
0.3139,1.0041,0.9167,1.0997
0.3224,1.0,0.9133,1.0949
0.3311,1.0012,0.9184,1.0915
0.34,1.0115,0.9354,1.0939
0.3492,1.0288,0.9592,1.1034
0.3586,1.0471,0.9791,1.1199
0.3683,1.0613,0.9894,1.1384
0.3782,1.07,0.9949,1.1507
0.3884,1.075,1.0004,1.1553
0.3989,1.0793,1.0055,1.1585
0.4097,1.0843,1.0078,1.1666
0.4207,1.0899,1.0084,1.1781
0.4321,1.0945,1.0091,1.1872
0.4437,1.0955,1.0087,1.1898
0.4557,1.0899,1.0062,1.1805
0.468,1.0771,1.0025,1.1573
0.4806,1.0618,0.9981,1.1295
0.4936,1.0505,0.991,1.1137
0.5069,1.0471,0.9829,1.1154
0.5206,1.0503,0.9808,1.1248
0.5347,1.0574,0.9858,1.1341
0.5491,1.0655,0.9922,1.1442
0.5639,1.0718,0.9942,1.1554
0.5791,1.0717,0.9899,1.1604
0.5947,1.0624,0.9789,1.153
0.6108,1.0461,0.9639,1.1353
0.6273,1.0295,0.9513,1.1141
0.6442,1.0184,0.9466,1.0957
0.6616,1.0143,0.9504,1.0826
0.6794,1.015,0.9594,1.074
0.6978,1.0175,0.9668,1.0709
0.7166,1.0202,0.9678,1.0755
0.7359,1.0227,0.966,1.0827
0.7558,1.0241,0.9661,1.0857
0.7762,1.0244,0.9682,1.0839
0.7971,1.0252,0.9705,1.0829
0.8186,1.0291,0.9728,1.0887
0.8407,1.0369,0.9781,1.0991
0.8634,1.0458,0.9861,1.1092
0.8867,1.0525,0.9898,1.1192
0.9106,1.0565,0.9862,1.1318
0.9352,1.0614,0.983,1.1461
0.9604,1.0709,0.9872,1.1617
0.9863,1.0826,0.9973,1.1752
1.0129,1.0894,1.0068,1.1789
1.0403,1.0868,1.0089,1.1707
1.0683,1.0762,1.0003,1.1578
1.0972,1.062,0.9826,1.1477
1.1268,1.0468,0.9611,1.1402
1.1572,1.0314,0.9394,1.1323
1.1884,1.0176,0.9182,1.1277
1.2205,1.0086,0.9016,1.1283
1.2534,1.0066,0.8993,1.1268
1.2872,1.0114,0.9124,1.1211
1.3219,1.0202,0.9302,1.1188
1.3576,1.0294,0.9409,1.1263
1.3942,1.0377,0.942,1.1431
1.4319,1.0456,0.9386,1.1648
1.4705,1.0527,0.9362,1.1837
1.5102,1.0554,0.9361,1.1899
1.5509,1.0498,0.9329,1.1813
1.5928,1.0364,0.9221,1.1649
1.6358,1.0216,0.9057,1.1523
1.6799,1.0143,0.891,1.1547
1.7252,1.0203,0.8864,1.1744
1.7718,1.039,0.8943,1.2071
1.8196,1.0672,0.9123,1.2483
1.8687,1.1015,0.9353,1.2972
1.9191,1.1379,0.958,1.3515
1.9709,1.1695,0.9777,1.3988
2.0241,1.1899,0.9919,1.4273
2.0787,1.1997,0.9988,1.4411
2.1348,1.207,1.0001,1.4567
2.1924,1.2183,0.9988,1.4861
2.2515,1.2337,0.9985,1.5242
2.3123,1.2492,1.0015,1.5583
2.3747,1.2631,1.0057,1.5865
2.4387,1.2783,1.0115,1.6154
2.5045,1.2996,1.0251,1.6477
2.5721,1.3299,1.0495,1.6853
2.6415,1.3676,1.0802,1.7314
2.7128,1.4083,1.1122,1.7831
2.786,1.4479,1.1419,1.8359
2.8612,1.4838,1.1669,1.8867
2.9384,1.5149,1.188,1.9317
3.0176,1.5409,1.2065,1.9681
3.0991,1.5609,1.2227,1.9927
3.1827,1.5723,1.2361,2.0
3.2686,1.5756,1.2464,1.9916
3.3567,1.5759,1.2532,1.9817
3.4473,1.579,1.2608,1.9775
3.5403,1.5888,1.2745,1.9805
3.6359,1.6095,1.2892,2.0093
3.734,1.6467,1.3011,2.084
3.8347,1.7079,1.3252,2.2013
3.9382,1.8015,1.3802,2.3513
4.0444,1.9272,1.4733,2.5209
4.1536,2.0674,1.5898,2.6885
4.2656,2.1928,1.6955,2.8359
4.3807,2.2845,1.762,2.9619
4.4989,2.3493,1.791,3.0817
4.6203,2.4063,1.8109,3.1974
4.745,2.4621,1.8439,3.2876
4.873,2.509,1.8879,3.3344
5.0045,2.5445,1.9339,3.3478
5.1396,2.586,1.9864,3.3666
5.2782,2.6645,2.0601,3.4462
5.4207,2.8058,2.1688,3.6298
5.5669,3.0146,2.3228,3.9123
5.7171,3.2768,2.5339,4.2374
5.8714,3.5704,2.8095,4.5374
6.0298,3.8631,3.1233,4.7781
6.1925,4.1034,3.4008,4.9511
6.3596,4.2347,3.5593,5.0383
6.5312,4.23,3.5696,5.0126
6.7074,4.1152,3.4675,4.884
6.8884,3.9539,3.3151,4.7159
7.0743,3.8055,3.1673,4.5723
7.2651,3.6944,3.0544,4.4684
7.4612,3.6096,2.9735,4.3817
7.6625,3.5248,2.8995,4.2849
7.8692,3.4129,2.8026,4.1563
8.0816,3.2545,2.664,3.9757
8.2996,3.0531,2.4893,3.7446
8.5236,2.8415,2.3072,3.4995
8.7536,2.6577,2.155,3.2777
8.9898,2.5211,2.0519,3.0976
9.2323,2.4272,1.989,2.962
9.4814,2.358,1.9398,2.8665
9.7373,2.2961,1.8814,2.8022
10.0,2.2318,1.8095,2.7526
