# hvsrpy output version 0.5.2
# File Name (),NA
# Method (),geometric-mean
# Azimuth (),0
# Window Length (s),3600.0
# Total Number of Windows (),24
# Frequency Domain Window Rejection Performed (),True
# Lower frequency limit for peaks (Hz),0.006
# Upper frequency limit for peaks (Hz),9.9
# Number of Standard Deviations Used for Rejection () [n],2
# Number of Accepted Windows (),24
# Number of Rejected Windows (),0
# Distribution of f0 (),lognormal
# Median f0 (Hz) [LMf0],0.029
# Lognormal standard deviation f0 () [SigmaLNf0],2.1093
# 68 % Confidence Interval f0 (Hz),0.0035,to,0.2392
# Median T0 (s) [LMT0],34.4577
# Lognormal standard deviation T0 () [SigmaLNT0],2.1093
# 68 % Confidence Interval T0 (s),4.1803,to,284.0279
# Median Curve Distribution (),lognormal
# Median Curve Peak Frequency (Hz) [f0mc],0.0068
# Median Curve Peak Amplitude (),3.4941
# Frequency (Hz),Median Curve,1 STD Below Median Curve,1 STD Above Median Curve
0.005,1.9161,0.8316,4.415
0.0052,2.0781,0.875,4.9355
0.0054,2.2511,0.8733,5.8024
0.0056,2.4742,0.9064,6.7541
0.0058,2.7319,0.9764,7.6438
0.0061,2.99,1.0106,8.8459
0.0063,3.2457,1.0017,10.5167
0.0065,3.4507,1.0046,11.8528
0.0068,3.4941,1.0452,11.6808
0.0071,3.3852,1.0952,10.4635
0.0073,3.2148,1.0938,9.4487
0.0076,2.9894,1.0342,8.6414
0.0079,2.7119,0.9393,7.8294
0.0082,2.4818,0.8362,7.3661
0.0085,2.3531,0.7573,7.3119
0.0089,2.2805,0.7073,7.3536
0.0092,2.2125,0.6819,7.1789
0.0096,2.1314,0.6922,6.563
0.0099,2.041,0.7135,5.8384
0.0103,1.9465,0.7257,5.2208
0.0107,1.8936,0.728,4.9257
0.0112,1.8643,0.7125,4.8779
0.0116,1.833,0.6858,4.8996
0.012,1.8139,0.6675,4.9292
0.0125,1.8061,0.6675,4.8869
0.013,1.773,0.6544,4.8036
0.0135,1.6957,0.6095,4.7173
0.014,1.6044,0.5634,4.5692
0.0146,1.5405,0.5337,4.4467
0.0151,1.5128,0.5108,4.4796
0.0157,1.493,0.5012,4.4478
0.0163,1.4758,0.5179,4.205
0.017,1.479,0.5453,4.0114
0.0176,1.4849,0.5456,4.0411
0.0183,1.4835,0.5297,4.155
0.019,1.4958,0.5295,4.2258
0.0198,1.5173,0.5421,4.2468
0.0205,1.5169,0.544,4.2299
0.0213,1.4831,0.5337,4.1215
0.0222,1.4537,0.534,3.9572
0.023,1.4645,0.5524,3.8829
0.0239,1.5222,0.5898,3.9287
0.0249,1.6157,0.6487,4.0238
0.0258,1.7015,0.6954,4.1633
0.0268,1.729,0.6944,4.3055
0.0279,1.7034,0.6713,4.3221
0.029,1.6749,0.6556,4.2792
0.0301,1.6693,0.6481,4.2998
0.0313,1.694,0.6547,4.3836
0.0325,1.7288,0.6693,4.4654
0.0338,1.7312,0.6729,4.4543
0.0351,1.6952,0.6628,4.3355
0.0364,1.6446,0.6482,4.1726
0.0379,1.5998,0.6332,4.0419
0.0393,1.5811,0.6222,4.0177
0.0409,1.5909,0.6217,4.0708
0.0425,1.5872,0.619,4.0698
0.0441,1.5526,0.6054,3.9816
0.0458,1.5249,0.5977,3.8908
0.0476,1.5269,0.6084,3.8321
0.0495,1.5487,0.6341,3.7828
0.0514,1.5743,0.6653,3.7252
0.0534,1.5962,0.6982,3.6494
0.0555,1.6305,0.7354,3.6148
0.0576,1.6807,0.7712,3.6627
0.0599,1.7133,0.7908,3.7122
0.0622,1.6979,0.7823,3.685
0.0646,1.6454,0.7575,3.5738
0.0671,1.6064,0.7498,3.4415
0.0698,1.619,0.7796,3.3621
0.0725,1.6743,0.8344,3.3597
0.0753,1.7352,0.883,3.4098
0.0782,1.772,0.9035,3.4753
0.0813,1.7749,0.9077,3.4707
0.0844,1.7557,0.9225,3.3416
0.0877,1.74,0.9619,3.1473
0.0911,1.7315,1.0107,2.9661
0.0947,1.6948,1.0226,2.8089
0.0984,1.6178,0.9852,2.6566
0.1022,1.5392,0.9428,2.513
0.1062,1.4809,0.9331,2.3504
0.1103,1.4345,0.9589,2.146
0.1146,1.3938,1.0063,1.9304
0.1191,1.3546,1.0648,1.7233
0.1237,1.3174,1.1154,1.5559
0.1285,1.2879,1.1385,1.4569
0.1335,1.2682,1.1386,1.4126
0.1387,1.2513,1.1251,1.3917
0.1441,1.2233,1.1024,1.3575
0.1497,1.1809,1.0784,1.2932
0.1556,1.1404,1.0581,1.2291
0.1616,1.1265,1.0555,1.2023
0.1679,1.1462,1.0834,1.2125
0.1744,1.175,1.1122,1.2415
0.1812,1.1867,1.1186,1.259
0.1883,1.1773,1.1132,1.2451
0.1956,1.155,1.0857,1.2287
0.2032,1.1377,1.0629,1.2177
0.2112,1.1474,1.0779,1.2213
0.2194,1.1803,1.1225,1.2409
0.2279,1.2147,1.1674,1.264
0.2368,1.2452,1.1867,1.3066
0.246,1.2717,1.2046,1.3426
0.2556,1.28,1.2094,1.3547
0.2655,1.2757,1.1971,1.3594
0.2759,1.3013,1.2276,1.3795
0.2866,1.3815,1.3212,1.4447
0.2978,1.485,1.4239,1.5488
0.3094,1.5587,1.4946,1.6255
0.3214,1.5884,1.5235,1.6561
0.3339,1.5964,1.5286,1.6672
0.3469,1.6078,1.537,1.6819
0.3604,1.6309,1.5502,1.7158
0.3745,1.6575,1.5691,1.7509
0.3891,1.6748,1.585,1.7697
0.4042,1.6775,1.5917,1.7679
0.4199,1.6842,1.6044,1.7681
0.4363,1.7127,1.6396,1.789
0.4533,1.7329,1.6674,1.801
0.4709,1.7107,1.6504,1.7732
0.4893,1.6681,1.6126,1.7255
0.5083,1.6347,1.5779,1.6935
0.5281,1.6083,1.5459,1.6733
0.5487,1.5885,1.5304,1.6488
0.57,1.5852,1.5349,1.6371
0.5922,1.5941,1.5476,1.642
0.6153,1.6039,1.5639,1.6448
0.6392,1.6202,1.5631,1.6793
0.6641,1.6498,1.5653,1.7388
0.69,1.6815,1.5759,1.7942
0.7168,1.7077,1.5966,1.8266
0.7447,1.7327,1.6338,1.8375
0.7737,1.7476,1.6561,1.8441
0.8039,1.7453,1.6339,1.8644
0.8352,1.7454,1.6048,1.8982
0.8677,1.7655,1.6288,1.9137
0.9015,1.7969,1.699,1.9004
0.9366,1.8208,1.7438,1.9013
0.973,1.8282,1.7087,1.956
1.0109,1.8171,1.6624,1.9862
1.0503,1.79,1.6031,1.9987
1.0912,1.762,1.5162,2.0476
1.1336,1.7476,1.4667,2.0824
1.1778,1.7424,1.4571,2.0836
1.2236,1.733,1.4507,2.0702
1.2713,1.7228,1.4428,2.0572
1.3208,1.7292,1.4481,2.0649
1.3722,1.7505,1.469,2.086
1.4256,1.7589,1.4769,2.0947
1.4811,1.7383,1.4497,2.0844
1.5388,1.706,1.4095,2.0648
1.5987,1.6773,1.3733,2.0487
1.661,1.6397,1.3311,2.02
1.7256,1.5779,1.259,1.9776
1.7928,1.5004,1.1626,1.9364
1.8626,1.4377,1.0957,1.8863
1.9351,1.4119,1.0804,1.845
2.0105,1.405,1.0862,1.8173
2.0888,1.3828,1.0799,1.7707
2.1701,1.3396,1.058,1.696
2.2546,1.2912,1.0342,1.6119
2.3424,1.2447,1.0021,1.546
2.4336,1.1961,0.9692,1.4762
2.5283,1.1466,0.9498,1.3842
2.6267,1.1014,0.9286,1.3062
2.729,1.062,0.9015,1.251
2.8353,1.027,0.8733,1.2078
2.9456,0.9933,0.8458,1.1665
3.0603,0.9619,0.824,1.1229
3.1795,0.9383,0.8059,1.0924
3.3033,0.9268,0.7914,1.0854
3.4319,0.9282,0.7875,1.0941
3.5655,0.9386,0.7943,1.1091
3.7043,0.9492,0.8042,1.1203
3.8486,0.9544,0.8096,1.1251
3.9984,0.961,0.812,1.1374
4.1541,0.9811,0.8235,1.1688
4.3158,1.0198,0.8474,1.2271
4.4838,1.0661,0.8766,1.2965
4.6584,1.0974,0.9055,1.33
4.8398,1.1034,0.9264,1.3143
5.0282,1.0985,0.9286,1.2995
5.224,1.0978,0.9221,1.307
5.4274,1.1049,0.9297,1.3131
5.6387,1.1239,0.9556,1.3217
5.8582,1.1566,0.9855,1.3575
6.0863,1.1966,1.0128,1.4138
6.3233,1.2375,1.0474,1.462
6.5695,1.2798,1.0948,1.4961
6.8253,1.3243,1.145,1.5317
7.091,1.3663,1.1899,1.5688
7.3671,1.398,1.2313,1.5874
7.6539,1.4195,1.2617,1.5971
7.9519,1.4347,1.2746,1.615
8.2615,1.4515,1.2731,1.6549
8.5832,1.4865,1.2757,1.7322
8.9173,1.5494,1.3074,1.8363
9.2645,1.6244,1.3697,1.9266
9.6252,1.6871,1.4387,1.9784
10.0,1.7294,1.4918,2.005
