# hvsrpy output version 0.5.2
# File Name (),NA
# Method (),geometric-mean
# Azimuth (),0
# Window Length (s),1200.0
# Total Number of Windows (),72
# Frequency Domain Window Rejection Performed (),True
# Lower frequency limit for peaks (Hz),0.1
# Upper frequency limit for peaks (Hz),10.0
# Number of Standard Deviations Used for Rejection () [n],2
# Number of Accepted Windows (),49
# Number of Rejected Windows (),23
# Distribution of f0 (),lognormal
# Median f0 (Hz) [LMf0],6.1556
# Lognormal standard deviation f0 () [SigmaLNf0],0.0245
# 68 % Confidence Interval f0 (Hz),6.0068,to,6.3081
# Median T0 (s) [LMT0],0.1625
# Lognormal standard deviation T0 () [SigmaLNT0],0.0245
# 68 % Confidence Interval T0 (s),0.1585,to,0.1665
# Median Curve Distribution (),lognormal
# Median Curve Peak Frequency (Hz) [f0mc],6.1925
# Median Curve Peak Amplitude (),5.2117
# Frequency (Hz),Median Curve,1 STD Below Median Curve,1 STD Above Median Curve
0.05,1.0885,0.7933,1.4935
0.0513,1.061,0.77,1.4618
0.0527,1.0461,0.7603,1.4395
0.0542,1.0445,0.761,1.4335
0.0556,1.0495,0.7647,1.4403
0.0571,1.0531,0.763,1.4534
0.0587,1.0531,0.7577,1.4635
0.0602,1.0502,0.7572,1.4568
0.0619,1.0427,0.7619,1.4271
0.0635,1.0303,0.7622,1.3928
0.0653,1.0179,0.7505,1.3807
0.067,1.0095,0.7323,1.3918
0.0688,1.0064,0.7193,1.408
0.0707,1.0094,0.722,1.4111
0.0726,1.0201,0.7446,1.3975
0.0745,1.0366,0.7781,1.3811
0.0766,1.0509,0.803,1.3752
0.0786,1.0536,0.8116,1.3676
0.0807,1.0444,0.8142,1.3396
0.0829,1.0323,0.8172,1.304
0.0852,1.0247,0.8206,1.2796
0.0875,1.0216,0.8229,1.2682
0.0898,1.0195,0.8207,1.2665
0.0922,1.0161,0.8165,1.2645
0.0947,1.01,0.8165,1.2493
0.0973,1.0023,0.8238,1.2196
0.0999,0.997,0.8389,1.1849
0.1026,0.9967,0.8575,1.1584
0.1054,0.9984,0.865,1.1524
0.1082,0.9956,0.8575,1.156
0.1111,0.9866,0.8471,1.1489
0.1141,0.978,0.8417,1.1363
0.1172,0.9765,0.8412,1.1337
0.1204,0.9833,0.8501,1.1375
0.1236,0.996,0.8719,1.1377
0.127,1.0117,0.8966,1.1414
0.1304,1.0263,0.9097,1.1578
0.1339,1.035,0.9168,1.1685
0.1375,1.0369,0.9203,1.1682
0.1412,1.0355,0.9143,1.1728
0.145,1.0352,0.9073,1.1811
0.149,1.0383,0.9063,1.1895
0.153,1.0448,0.9088,1.2012
0.1571,1.0532,0.9143,1.2133
0.1613,1.0591,0.9205,1.2186
0.1657,1.0563,0.9208,1.2117
0.1702,1.0411,0.913,1.1872
0.1748,1.0173,0.9024,1.1467
0.1795,0.9937,0.8913,1.108
0.1843,0.9781,0.8767,1.0911
0.1893,0.9717,0.865,1.0917
0.1944,0.9715,0.8651,1.0909
0.1996,0.9741,0.8734,1.0865
0.205,0.979,0.8793,1.0899
0.2106,0.9873,0.8814,1.1059
0.2162,1.0016,0.887,1.131
0.2221,1.0248,0.9041,1.1616
0.2281,1.0565,0.936,1.1924
0.2342,1.0894,0.9751,1.2171
0.2405,1.1111,1.0053,1.2281
0.247,1.1123,1.0127,1.2217
0.2537,1.0949,0.9948,1.2052
0.2605,1.0707,0.9645,1.1887
0.2676,1.0514,0.9394,1.1767
0.2748,1.0427,0.9292,1.1702
0.2822,1.0448,0.9363,1.1659
0.2898,1.0541,0.9546,1.1638
0.2976,1.065,0.9713,1.1677
0.3057,1.0733,0.9812,1.1741
0.3139,1.0793,0.9878,1.1793
0.3224,1.0879,0.9964,1.1878
0.3311,1.1027,1.0109,1.2028
0.34,1.1216,1.0292,1.2222
0.3492,1.1371,1.0446,1.2378
0.3586,1.143,1.0547,1.2388
0.3683,1.1392,1.0587,1.2259
0.3782,1.1312,1.0536,1.2145
0.3884,1.1253,1.0451,1.2117
0.3989,1.1238,1.0442,1.2095
0.4097,1.124,1.0486,1.2048
0.4207,1.1209,1.0457,1.2014
0.4321,1.1108,1.0314,1.1962
0.4437,1.0948,1.0128,1.1834
0.4557,1.0778,0.9972,1.1649
0.468,1.0644,0.9862,1.1488
0.4806,1.0556,0.9778,1.1396
0.4936,1.0491,0.9718,1.1325
0.5069,1.0434,0.9678,1.1249
0.5206,1.041,0.9675,1.1201
0.5347,1.0452,0.9741,1.1215
0.5491,1.0554,0.9856,1.1301
0.5639,1.0661,0.9972,1.1398
0.5791,1.0707,1.0048,1.141
0.5947,1.0659,1.0038,1.1319
0.6108,1.0539,0.9935,1.1179
0.6273,1.0402,0.9816,1.1024
0.6442,1.0305,0.975,1.0892
0.6616,1.0268,0.9741,1.0823
0.6794,1.0271,0.9734,1.0838
0.6978,1.0276,0.9666,1.0925
0.7166,1.0256,0.9535,1.1032
0.7359,1.021,0.9376,1.1117
0.7558,1.0151,0.9216,1.118
0.7762,1.0102,0.9092,1.1224
0.7971,1.0087,0.9071,1.1217
0.8186,1.0116,0.9198,1.1127
0.8407,1.0183,0.9432,1.0995
0.8634,1.0269,0.9639,1.0939
0.8867,1.0356,0.9756,1.0994
0.9106,1.0445,0.9836,1.1092
0.9352,1.0529,0.99,1.1198
0.9604,1.059,0.9929,1.1296
0.9863,1.0605,0.9895,1.1366
1.0129,1.0569,0.9808,1.139
1.0403,1.051,0.9719,1.1366
1.0683,1.0459,0.9669,1.1313
1.0972,1.0418,0.9665,1.123
1.1268,1.0362,0.9695,1.1075
1.1572,1.0274,0.9718,1.0861
1.1884,1.018,0.9678,1.0708
1.2205,1.013,0.9581,1.071
1.2534,1.0143,0.95,1.0829
1.2872,1.0192,0.944,1.1005
1.3219,1.024,0.9365,1.1196
1.3576,1.0266,0.9312,1.1319
1.3942,1.0278,0.9312,1.1344
1.4319,1.0294,0.9345,1.134
1.4705,1.0334,0.9382,1.1383
1.5102,1.04,0.9399,1.1506
1.5509,1.047,0.936,1.1711
1.5928,1.0523,0.9254,1.1966
1.6358,1.0568,0.9127,1.2236
1.6799,1.0654,0.9057,1.2533
1.7252,1.0839,0.9105,1.2904
1.7718,1.1149,0.9292,1.3376
1.8196,1.1568,0.9596,1.3946
1.8687,1.2057,0.9959,1.4598
1.9191,1.2564,1.0324,1.5289
1.9709,1.3026,1.0667,1.5906
2.0241,1.339,1.0952,1.6372
2.0787,1.3634,1.1103,1.6741
2.1348,1.3763,1.11,1.7066
2.1924,1.3813,1.1019,1.7317
2.2515,1.3828,1.0936,1.7486
2.3123,1.3854,1.0876,1.7648
2.3747,1.3932,1.0853,1.7885
2.4387,1.4099,1.0891,1.8252
2.5045,1.4375,1.1001,1.8783
2.5721,1.4758,1.1211,1.9427
2.6415,1.5216,1.1554,2.004
2.7128,1.5712,1.2027,2.0527
2.786,1.6236,1.2584,2.0947
2.8612,1.6809,1.3186,2.1428
2.9384,1.7454,1.3805,2.2067
3.0176,1.8152,1.4408,2.2869
3.0991,1.8848,1.4954,2.3755
3.1827,1.9505,1.5458,2.4611
3.2686,2.0139,1.5988,2.5368
3.3567,2.0775,1.6571,2.6045
3.4473,2.1372,1.7161,2.6615
3.5403,2.1827,1.7665,2.6969
3.6359,2.2112,1.8033,2.7113
3.734,2.2343,1.8349,2.7207
3.8347,2.2674,1.8766,2.7396
3.9382,2.3177,1.936,2.7746
4.0444,2.3822,2.0082,2.8258
4.1536,2.4519,2.0805,2.8896
4.2656,2.5199,2.1441,2.9617
4.3807,2.592,2.2046,3.0476
4.4989,2.6867,2.2782,3.1685
4.6203,2.817,2.3813,3.3323
4.745,2.9731,2.5182,3.5102
4.873,3.1276,2.6703,3.6631
5.0045,3.2627,2.8087,3.79
5.1396,3.3945,2.9241,3.9406
5.2782,3.5681,3.0485,4.1763
5.4207,3.8275,3.2338,4.5302
5.5669,4.1836,3.506,4.9921
5.7171,4.5892,3.8404,5.4839
5.8714,4.9451,4.1677,5.8674
6.0298,5.1609,4.4096,6.0401
6.1925,5.2117,4.5198,6.0095
6.3596,5.1292,4.4976,5.8495
6.5312,4.9686,4.3785,5.6382
6.7074,4.7854,4.2137,5.4345
6.8884,4.6227,4.0531,5.2725
7.0743,4.5027,3.9297,5.1594
7.2651,4.4254,3.852,5.0841
7.4612,4.3767,3.8049,5.0344
7.6625,4.3386,3.76,5.0063
7.8692,4.2925,3.6935,4.9885
8.0816,4.2174,3.5908,4.9533
8.2996,4.0949,3.4402,4.8743
8.5236,3.9183,3.2432,4.7339
8.7536,3.6964,3.0225,4.5205
8.9898,3.4509,2.8048,4.2459
9.2323,3.2083,2.6048,3.9516
9.4814,2.9909,2.4301,3.6811
9.7373,2.8107,2.284,3.4588
10.0,2.6695,2.1655,3.2907
