# hvsrpy output version 0.5.2
# File Name (),NA
# Method (),geometric-mean
# Azimuth (),0
# Window Length (s),1200.0
# Total Number of Windows (),72
# Frequency Domain Window Rejection Performed (),True
# Lower frequency limit for peaks (Hz),0.1
# Upper frequency limit for peaks (Hz),5.0
# Number of Standard Deviations Used for Rejection () [n],2
# Number of Accepted Windows (),67
# Number of Rejected Windows (),5
# Distribution of f0 (),lognormal
# Median f0 (Hz) [LMf0],1.5698
# Lognormal standard deviation f0 () [SigmaLNf0],0.2559
# 68 % Confidence Interval f0 (Hz),1.2155,to,2.0276
# Median T0 (s) [LMT0],0.637
# Lognormal standard deviation T0 () [SigmaLNT0],0.2559
# 68 % Confidence Interval T0 (s),0.4932,to,0.8227
# Median Curve Distribution (),lognormal
# Median Curve Peak Frequency (Hz) [f0mc],1.572
# Median Curve Peak Amplitude (),2.3738
# Frequency (Hz),Median Curve,1 STD Below Median Curve,1 STD Above Median Curve
0.05,2.0712,1.1033,3.8883
0.0512,2.2211,1.1597,4.2539
0.0524,2.382,1.2397,4.5765
0.0536,2.5538,1.3479,4.8384
0.0548,2.7325,1.4829,5.0353
0.0561,2.906,1.6301,5.1805
0.0574,3.0614,1.7649,5.3103
0.0588,3.1901,1.8676,5.449
0.0602,3.2856,1.9381,5.5699
0.0616,3.3425,1.9869,5.6229
0.063,3.3601,2.0162,5.5998
0.0645,3.3444,2.0224,5.5304
0.066,3.3002,2.0118,5.4136
0.0675,3.2275,1.9958,5.2193
0.0691,3.1233,1.974,4.9416
0.0707,2.9828,1.9313,4.6067
0.0724,2.8059,1.8547,4.2449
0.0741,2.6054,1.7504,3.8781
0.0758,2.403,1.6402,3.5205
0.0776,2.2178,1.5406,3.1927
0.0794,2.0605,1.4553,2.9173
0.0813,1.9308,1.3843,2.693
0.0832,1.8212,1.3251,2.503
0.0851,1.7245,1.2708,2.3402
0.0871,1.6365,1.2171,2.2005
0.0892,1.553,1.167,2.0667
0.0913,1.4692,1.1224,1.9232
0.0934,1.3836,1.0777,1.7764
0.0956,1.3004,1.0291,1.6432
0.0978,1.2262,0.9815,1.5319
0.1001,1.1675,0.9444,1.4433
0.1025,1.1282,0.924,1.3776
0.1049,1.1087,0.9209,1.335
0.1073,1.1052,0.9295,1.3141
0.1098,1.1117,0.9424,1.3114
0.1124,1.1236,0.9563,1.3201
0.115,1.1392,0.9737,1.3329
0.1177,1.1575,0.9955,1.3458
0.1205,1.175,1.0168,1.3578
0.1233,1.1865,1.0299,1.3669
0.1262,1.1884,1.0335,1.3665
0.1291,1.1821,1.0336,1.3519
0.1322,1.1748,1.0352,1.3333
0.1352,1.1753,1.0395,1.3288
0.1384,1.1884,1.0529,1.3414
0.1417,1.2131,1.0829,1.3589
0.145,1.2445,1.124,1.3779
0.1484,1.2783,1.159,1.4099
0.1518,1.3117,1.1802,1.4578
0.1554,1.3416,1.1972,1.5035
0.159,1.3645,1.2161,1.5309
0.1628,1.3766,1.2325,1.5374
0.1666,1.3754,1.2391,1.5266
0.1705,1.3601,1.2328,1.5005
0.1745,1.3323,1.2141,1.4621
0.1785,1.2966,1.183,1.421
0.1827,1.2595,1.1432,1.3878
0.187,1.2287,1.1065,1.3644
0.1914,1.2104,1.0878,1.3469
0.1959,1.2074,1.0924,1.3345
0.2004,1.2167,1.1115,1.3318
0.2051,1.232,1.1317,1.3412
0.2099,1.2481,1.148,1.3569
0.2149,1.2634,1.1626,1.3729
0.2199,1.2775,1.1769,1.3866
0.225,1.2894,1.1901,1.3969
0.2303,1.2969,1.1989,1.4028
0.2357,1.2981,1.1997,1.4045
0.2412,1.2938,1.1923,1.404
0.2469,1.2887,1.182,1.4049
0.2526,1.2897,1.1795,1.4102
0.2585,1.304,1.1954,1.4226
0.2646,1.3362,1.2326,1.4484
0.2708,1.386,1.2838,1.4964
0.2771,1.4488,1.3397,1.5667
0.2836,1.5171,1.3998,1.6442
0.2903,1.5844,1.4639,1.7147
0.2971,1.6474,1.5253,1.7794
0.304,1.7047,1.5764,1.8434
0.3111,1.7524,1.6166,1.8995
0.3184,1.7835,1.6449,1.9338
0.3259,1.7921,1.6566,1.9387
0.3335,1.778,1.6493,1.9168
0.3413,1.7489,1.6256,1.8815
0.3493,1.7166,1.5942,1.8483
0.3575,1.6918,1.5687,1.8245
0.3658,1.6807,1.5596,1.8113
0.3744,1.6846,1.5691,1.8085
0.3832,1.7007,1.5918,1.8171
0.3921,1.7257,1.619,1.8395
0.4013,1.7574,1.6476,1.8745
0.4107,1.7943,1.6817,1.9144
0.4203,1.8334,1.7212,1.9529
0.4302,1.8681,1.7555,1.988
0.4402,1.89,1.7733,2.0144
0.4506,1.8926,1.7711,2.0224
0.4611,1.876,1.7518,2.0089
0.4719,1.8473,1.7226,1.9809
0.4829,1.8181,1.6945,1.9507
0.4942,1.7996,1.6771,1.931
0.5058,1.7979,1.6754,1.9294
0.5177,1.8121,1.6889,1.9444
0.5298,1.8357,1.7131,1.967
0.5422,1.8604,1.7414,1.9874
0.5549,1.8806,1.7662,2.0025
0.5679,1.8961,1.7819,2.0176
0.5812,1.9102,1.7923,2.0359
0.5948,1.927,1.8061,2.056
0.6087,1.9481,1.8267,2.0776
0.6229,1.9733,1.8529,2.1015
0.6375,2.0024,1.8847,2.1275
0.6525,2.0345,1.9191,2.1568
0.6677,2.0657,1.95,2.1882
0.6834,2.0888,1.9716,2.2129
0.6994,2.0986,1.9815,2.2226
0.7157,2.0975,1.9835,2.218
0.7325,2.0945,1.9842,2.2109
0.7496,2.0984,1.9877,2.2153
0.7672,2.1112,1.996,2.233
0.7851,2.128,2.0095,2.2534
0.8035,2.1433,2.0258,2.2676
0.8223,2.1569,2.0428,2.2773
0.8416,2.1727,2.0612,2.2901
0.8613,2.1943,2.0822,2.3124
0.8815,2.2215,2.105,2.3444
0.9021,2.2507,2.1284,2.3799
0.9232,2.2759,2.1521,2.4067
0.9448,2.2895,2.1738,2.4115
0.9669,2.2849,2.1838,2.3907
0.9896,2.2605,2.1677,2.3574
1.0128,2.224,2.1245,2.328
1.0365,2.1893,2.0777,2.307
1.0607,2.1704,2.0484,2.2997
1.0856,2.1736,2.04,2.3158
1.111,2.1963,2.0469,2.3567
1.137,2.2312,2.063,2.4131
1.1636,2.2709,2.0837,2.475
1.1908,2.3105,2.1062,2.5346
1.2187,2.3447,2.1298,2.5813
1.2473,2.3667,2.151,2.6041
1.2765,2.3713,2.163,2.5996
1.3063,2.3596,2.165,2.5717
1.3369,2.3404,2.1638,2.5314
1.3682,2.3242,2.1629,2.4975
1.4003,2.3181,2.1581,2.4899
1.433,2.3234,2.1467,2.5146
1.4666,2.3372,2.1349,2.5586
1.5009,2.3545,2.128,2.6051
1.5361,2.369,2.1222,2.6445
1.572,2.3738,2.1093,2.6715
1.6088,2.3646,2.0839,2.6831
1.6465,2.3433,2.0454,2.6845
1.685,2.3162,1.9987,2.6841
1.7245,2.2892,1.9531,2.6832
1.7649,2.2644,1.9164,2.6756
1.8062,2.2411,1.889,2.6588
1.8485,2.2186,1.8645,2.64
1.8917,2.197,1.8369,2.6277
1.936,2.1759,1.8052,2.6227
1.9813,2.1549,1.771,2.6221
2.0277,2.1337,1.7355,2.6234
2.0752,2.1111,1.6985,2.6238
2.1238,2.0838,1.6592,2.617
2.1735,2.0471,1.6154,2.5943
2.2244,1.998,1.5661,2.549
2.2765,1.9378,1.5137,2.4807
2.3298,1.873,1.4631,2.3976
2.3843,1.8111,1.4191,2.3114
2.4401,1.7563,1.3835,2.2296
2.4973,1.7082,1.3543,2.1546
2.5557,1.6638,1.3262,2.0872
2.6155,1.6207,1.2947,2.0288
2.6768,1.5786,1.2589,1.9794
2.7395,1.5387,1.2224,1.937
2.8036,1.5028,1.189,1.8994
2.8692,1.4708,1.1613,1.8628
2.9364,1.4409,1.1402,1.8208
3.0051,1.4092,1.1242,1.7665
3.0755,1.3723,1.1087,1.6985
3.1475,1.3283,1.0882,1.6213
3.2212,1.2786,1.0613,1.5404
3.2966,1.2273,1.0313,1.4606
3.3738,1.1796,1.0021,1.3886
3.4528,1.1391,0.9755,1.3301
3.5336,1.1062,0.9513,1.2864
3.6163,1.0793,0.9288,1.2542
3.701,1.0562,0.9082,1.2282
3.7876,1.0355,0.8905,1.204
3.8763,1.0176,0.877,1.1808
3.967,1.0034,0.8674,1.1608
4.0599,0.9934,0.861,1.1463
4.155,0.9873,0.8571,1.1374
4.2522,0.9842,0.8553,1.1325
4.3518,0.9832,0.8555,1.13
4.4537,0.9837,0.8573,1.1287
4.5579,0.9854,0.8607,1.1282
4.6647,0.9882,0.8657,1.1281
4.7739,0.9924,0.8724,1.1289
4.8856,0.9982,0.881,1.1309
5.0,1.0058,0.8912,1.1351
