# hvsrpy output version 0.5.2
# File Name (),NA
# Method (),geometric-mean
# Azimuth (),0
# Window Length (s),3600.0
# Total Number of Windows (),24
# Frequency Domain Window Rejection Performed (),True
# Lower frequency limit for peaks (Hz),0.006
# Upper frequency limit for peaks (Hz),9.9
# Number of Standard Deviations Used for Rejection () [n],2
# Number of Accepted Windows (),18
# Number of Rejected Windows (),6
# Distribution of f0 (),lognormal
# Median f0 (Hz) [LMf0],3.2408
# Lognormal standard deviation f0 () [SigmaLNf0],0.1638
# 68 % Confidence Interval f0 (Hz),2.7513,to,3.8174
# Median T0 (s) [LMT0],0.3086
# Lognormal standard deviation T0 () [SigmaLNT0],0.1638
# 68 % Confidence Interval T0 (s),0.262,to,0.3635
# Median Curve Distribution (),lognormal
# Median Curve Peak Frequency (Hz) [f0mc],3.3033
# Median Curve Peak Amplitude (),2.2617
# Frequency (Hz),Median Curve,1 STD Below Median Curve,1 STD Above Median Curve
0.005,1.0245,0.6095,1.7221
0.0052,1.0638,0.6326,1.7889
0.0054,1.1151,0.6788,1.8318
0.0056,1.1361,0.6963,1.8537
0.0058,1.1091,0.6748,1.8231
0.0061,1.0544,0.6791,1.6371
0.0063,1.0274,0.7265,1.4529
0.0065,1.0417,0.78,1.3914
0.0068,1.0372,0.7409,1.4519
0.0071,1.0068,0.6805,1.4898
0.0073,1.0009,0.672,1.491
0.0076,1.0605,0.7461,1.5073
0.0079,1.1752,0.879,1.5711
0.0082,1.2636,0.9469,1.6863
0.0085,1.2726,0.9009,1.7976
0.0089,1.2484,0.8571,1.8183
0.0092,1.2268,0.8426,1.786
0.0096,1.2045,0.835,1.7376
0.0099,1.1967,0.83,1.7253
0.0103,1.2034,0.8159,1.7749
0.0107,1.2238,0.8577,1.7461
0.0112,1.253,0.9097,1.726
0.0116,1.2563,0.8999,1.7537
0.012,1.2233,0.877,1.7063
0.0125,1.1934,0.8617,1.6527
0.013,1.1922,0.8666,1.6403
0.0135,1.224,0.9086,1.6488
0.014,1.2667,0.9111,1.7611
0.0146,1.2767,0.9049,1.8011
0.0151,1.2655,0.954,1.6788
0.0157,1.2604,1.0178,1.5609
0.0163,1.2588,1.0041,1.5781
0.017,1.2401,0.9786,1.5717
0.0176,1.1971,0.9378,1.5282
0.0183,1.1484,0.8765,1.5047
0.019,1.1222,0.8454,1.4898
0.0198,1.1063,0.8396,1.4577
0.0205,1.0725,0.8369,1.3745
0.0213,1.0252,0.8113,1.2955
0.0222,0.9921,0.7736,1.2722
0.023,0.9998,0.7738,1.2919
0.0239,1.0439,0.8209,1.3276
0.0249,1.0967,0.8634,1.393
0.0258,1.1361,0.8782,1.4698
0.0268,1.1474,0.9156,1.4379
0.0279,1.13,0.9434,1.3535
0.029,1.109,0.9244,1.3304
0.0301,1.117,0.9204,1.3556
0.0313,1.1505,0.9484,1.3957
0.0325,1.1781,0.9722,1.4276
0.0338,1.1861,0.9836,1.4303
0.0351,1.1818,0.9646,1.4478
0.0364,1.1546,0.9102,1.4646
0.0379,1.1103,0.8412,1.4654
0.0393,1.0793,0.81,1.4382
0.0409,1.0673,0.8255,1.3798
0.0425,1.0757,0.8352,1.3855
0.0441,1.1143,0.8634,1.4382
0.0458,1.1778,0.916,1.5143
0.0476,1.2276,0.955,1.5781
0.0495,1.2403,0.9827,1.5654
0.0514,1.2549,1.0267,1.5338
0.0534,1.3208,1.112,1.569
0.0555,1.4399,1.2548,1.6524
0.0576,1.5667,1.3831,1.7746
0.0599,1.6417,1.4574,1.8492
0.0622,1.6581,1.511,1.8195
0.0646,1.6872,1.5291,1.8617
0.0671,1.7627,1.5494,2.0053
0.0698,1.8173,1.5849,2.0837
0.0725,1.7837,1.5779,2.0164
0.0753,1.6857,1.5019,1.8921
0.0782,1.5673,1.3917,1.765
0.0813,1.4479,1.2666,1.6551
0.0844,1.3406,1.1419,1.5738
0.0877,1.2507,1.0534,1.485
0.0911,1.1623,1.0139,1.3324
0.0947,1.0712,0.9784,1.1729
0.0984,1.0078,0.9115,1.1143
0.1022,0.9804,0.8862,1.0846
0.1062,0.9648,0.8926,1.0429
0.1103,0.9493,0.8743,1.0306
0.1146,0.9402,0.8574,1.031
0.1191,0.9353,0.8573,1.0204
0.1237,0.924,0.8482,1.0066
0.1285,0.9064,0.8328,0.9866
0.1335,0.8944,0.8259,0.9686
0.1387,0.8948,0.8203,0.9761
0.1441,0.8973,0.8205,0.9813
0.1497,0.884,0.8153,0.9586
0.1556,0.8476,0.7942,0.9045
0.1616,0.799,0.7542,0.8465
0.1679,0.7603,0.7078,0.8166
0.1744,0.7535,0.6994,0.8117
0.1812,0.7812,0.7312,0.8346
0.1883,0.8212,0.7686,0.8774
0.1956,0.8582,0.7956,0.9258
0.2032,0.8972,0.8357,0.9632
0.2112,0.9335,0.8822,0.9879
0.2194,0.954,0.9055,1.0051
0.2279,0.9566,0.9102,1.0054
0.2368,0.943,0.8984,0.9897
0.246,0.9215,0.8729,0.9727
0.2556,0.9079,0.8619,0.9563
0.2655,0.9033,0.8677,0.9403
0.2759,0.8936,0.8625,0.9259
0.2866,0.875,0.8378,0.9138
0.2978,0.8559,0.818,0.8956
0.3094,0.8383,0.8018,0.8765
0.3214,0.817,0.7797,0.8561
0.3339,0.7943,0.7589,0.8314
0.3469,0.7789,0.747,0.8121
0.3604,0.7751,0.7468,0.8045
0.3745,0.7829,0.7537,0.8132
0.3891,0.7977,0.7674,0.8293
0.4042,0.8074,0.7787,0.8371
0.4199,0.802,0.7737,0.8313
0.4363,0.7875,0.7642,0.8115
0.4533,0.7776,0.7542,0.8018
0.4709,0.7781,0.7487,0.8087
0.4893,0.79,0.7578,0.8236
0.5083,0.8171,0.7869,0.8486
0.5281,0.8573,0.8283,0.8872
0.5487,0.8943,0.8607,0.9292
0.57,0.9145,0.8769,0.9538
0.5922,0.9252,0.8884,0.9636
0.6153,0.9461,0.911,0.9826
0.6392,0.9836,0.9533,1.0149
0.6641,1.0205,0.9969,1.0445
0.69,1.0325,1.0069,1.0587
0.7168,1.0163,0.9844,1.0494
0.7447,0.9977,0.9625,1.0341
0.7737,1.0053,0.9715,1.0403
0.8039,1.0379,1.0066,1.0702
0.8352,1.0621,1.0333,1.0916
0.8677,1.0526,1.0276,1.0781
0.9015,1.0196,0.9956,1.0441
0.9366,0.9812,0.9517,1.0115
0.973,0.9406,0.9041,0.9786
1.0109,0.8979,0.8619,0.9354
1.0503,0.8632,0.8384,0.8887
1.0912,0.8516,0.8343,0.8694
1.1336,0.8738,0.8496,0.8986
1.1778,0.9288,0.9062,0.952
1.2236,1.0038,0.983,1.0251
1.2713,1.0819,1.0497,1.1151
1.3208,1.1469,1.1042,1.1913
1.3722,1.189,1.1515,1.2277
1.4256,1.2152,1.1739,1.258
1.4811,1.244,1.1896,1.301
1.5388,1.2909,1.2221,1.3636
1.5987,1.3578,1.2785,1.442
1.661,1.4387,1.335,1.5506
1.7256,1.5212,1.3704,1.6886
1.7928,1.5916,1.4218,1.7818
1.8626,1.6505,1.4861,1.8331
1.9351,1.7029,1.5464,1.8753
2.0105,1.7553,1.5996,1.9261
2.0888,1.8057,1.644,1.9834
2.1701,1.8341,1.6588,2.028
2.2546,1.8456,1.6477,2.0673
2.3424,1.8697,1.6535,2.1142
2.4336,1.9066,1.6636,2.1851
2.5283,1.9419,1.6351,2.3062
2.6267,1.9799,1.6025,2.4462
2.729,2.0321,1.6261,2.5393
2.8353,2.0974,1.6906,2.6021
2.9456,2.1643,1.7484,2.679
3.0603,2.2201,1.7939,2.7475
3.1795,2.2553,1.8429,2.7599
3.3033,2.2617,1.8928,2.7025
3.4319,2.2432,1.9297,2.6077
3.5655,2.2165,1.9538,2.5145
3.7043,2.1841,1.9618,2.4317
3.8486,2.1379,1.9306,2.3674
3.9984,2.0852,1.8671,2.3288
4.1541,2.0343,1.8007,2.2981
4.3158,1.9726,1.7351,2.2427
4.4838,1.894,1.6604,2.1605
4.6584,1.8058,1.5656,2.0828
4.8398,1.7039,1.4514,2.0003
5.0282,1.5856,1.3214,1.9025
5.224,1.4657,1.1947,1.7981
5.4274,1.3565,1.0875,1.6921
5.6387,1.2598,1.0012,1.5852
5.8582,1.187,0.9521,1.4799
6.0863,1.1545,0.9517,1.4005
6.3233,1.1673,0.9735,1.3996
6.5695,1.2122,0.9831,1.4947
6.8253,1.2619,0.9918,1.6055
7.091,1.2937,1.0003,1.6732
7.3671,1.2901,0.9897,1.6815
7.6539,1.2464,0.9621,1.6147
7.9519,1.1846,0.9377,1.4966
8.2615,1.135,0.9201,1.3999
8.5832,1.0996,0.9008,1.3423
8.9173,1.0595,0.87,1.2903
9.2645,1.0137,0.8337,1.2325
9.6252,0.9758,0.8041,1.1841
10.0,0.9523,0.7867,1.1528
