# hvsrpy output version 0.5.2
# File Name (),NA
# Method (),geometric-mean
# Azimuth (),0
# Window Length (s),3600.0
# Total Number of Windows (),24
# Frequency Domain Window Rejection Performed (),True
# Lower frequency limit for peaks (Hz),0.006
# Upper frequency limit for peaks (Hz),9.9
# Number of Standard Deviations Used for Rejection () [n],2
# Number of Accepted Windows (),24
# Number of Rejected Windows (),0
# Distribution of f0 (),lognormal
# Median f0 (Hz) [LMf0],0.137
# Lognormal standard deviation f0 () [SigmaLNf0],3.0751
# 68 % Confidence Interval f0 (Hz),0.0063,to,2.9657
# Median T0 (s) [LMT0],7.3012
# Lognormal standard deviation T0 () [SigmaLNT0],3.0751
# 68 % Confidence Interval T0 (s),0.3372,to,158.0935
# Median Curve Distribution (),lognormal
# Median Curve Peak Frequency (Hz) [f0mc],0.0068
# Median Curve Peak Amplitude (),2.0547
# Frequency (Hz),Median Curve,1 STD Below Median Curve,1 STD Above Median Curve
0.005,1.7921,0.5973,5.3771
0.0052,1.8333,0.6386,5.2635
0.0054,1.8428,0.684,4.9647
0.0056,1.7819,0.7129,4.4537
0.0058,1.6881,0.7224,3.9447
0.0061,1.6746,0.7535,3.7214
0.0063,1.7962,0.8313,3.8813
0.0065,1.9764,0.9164,4.2627
0.0068,2.0547,0.9513,4.4378
0.0071,1.9443,0.9329,4.0522
0.0073,1.7659,0.9059,3.4424
0.0076,1.6623,0.8784,3.1457
0.0079,1.6412,0.8327,3.2347
0.0082,1.6438,0.7923,3.4107
0.0085,1.6286,0.7684,3.4517
0.0089,1.6121,0.758,3.4285
0.0092,1.58,0.7755,3.2191
0.0096,1.5387,0.8245,2.8716
0.0099,1.5256,0.8619,2.7005
0.0103,1.5236,0.8396,2.7648
0.0107,1.5101,0.7949,2.8686
0.0112,1.4906,0.7907,2.8101
0.0116,1.4584,0.8353,2.5463
0.012,1.4,0.8678,2.2586
0.0125,1.3356,0.8376,2.1298
0.013,1.2852,0.792,2.0854
0.0135,1.2548,0.7577,2.0779
0.014,1.2286,0.7176,2.1032
0.0146,1.2116,0.6909,2.1249
0.0151,1.2262,0.7045,2.1343
0.0157,1.2561,0.7318,2.1561
0.0163,1.259,0.7378,2.1484
0.017,1.238,0.7361,2.0821
0.0176,1.2046,0.7256,1.9998
0.0183,1.1483,0.6987,1.887
0.019,1.0893,0.6702,1.7706
0.0198,1.053,0.6516,1.7016
0.0205,1.0265,0.6419,1.6417
0.0213,1.0005,0.6352,1.5759
0.0222,0.9785,0.6253,1.5311
0.023,0.9508,0.6043,1.4961
0.0239,0.9124,0.5724,1.4546
0.0249,0.8919,0.5626,1.4141
0.0258,0.9176,0.59,1.4271
0.0268,0.9834,0.6567,1.4725
0.0279,1.0763,0.7484,1.5479
0.029,1.1811,0.8174,1.7067
0.0301,1.2413,0.8321,1.8518
0.0313,1.2262,0.817,1.8403
0.0325,1.1778,0.7844,1.7685
0.0338,1.1312,0.7526,1.7004
0.0351,1.0868,0.7298,1.6184
0.0364,1.0343,0.7106,1.5053
0.0379,0.99,0.6951,1.4101
0.0393,0.9779,0.6941,1.3776
0.0409,0.9793,0.6943,1.3813
0.0425,0.9566,0.667,1.372
0.0441,0.9108,0.6211,1.3357
0.0458,0.8696,0.5965,1.2678
0.0476,0.8547,0.6089,1.1995
0.0495,0.8756,0.6424,1.1936
0.0514,0.9309,0.684,1.267
0.0534,1.0065,0.7576,1.3372
0.0555,1.0811,0.8703,1.343
0.0576,1.151,0.9323,1.4209
0.0599,1.1991,0.9264,1.5522
0.0622,1.2073,0.9143,1.5943
0.0646,1.188,0.8931,1.5801
0.0671,1.1614,0.8689,1.5522
0.0698,1.132,0.8613,1.4877
0.0725,1.1078,0.8706,1.4097
0.0753,1.107,0.8878,1.3803
0.0782,1.1268,0.9155,1.387
0.0813,1.1414,0.9605,1.3562
0.0844,1.1364,0.9861,1.3097
0.0877,1.1289,0.9766,1.3048
0.0911,1.1448,0.9935,1.3191
0.0947,1.1706,1.0278,1.3332
0.0984,1.1696,1.0354,1.3212
0.1022,1.15,1.0233,1.2924
0.1062,1.1555,1.0338,1.2915
0.1103,1.1935,1.0685,1.3331
0.1146,1.2228,1.0971,1.363
0.1191,1.2074,1.1004,1.3248
0.1237,1.1598,1.0655,1.2625
0.1285,1.1227,1.0306,1.2231
0.1335,1.1105,1.0235,1.2049
0.1387,1.1123,1.0245,1.2077
0.1441,1.1212,1.0418,1.2066
0.1497,1.1321,1.0651,1.2033
0.1556,1.1392,1.0728,1.2096
0.1616,1.1494,1.0736,1.2306
0.1679,1.1679,1.0714,1.273
0.1744,1.1792,1.0788,1.2891
0.1812,1.1702,1.0853,1.2619
0.1883,1.1503,1.0798,1.2254
0.1956,1.1308,1.0683,1.197
0.2032,1.1211,1.0626,1.1829
0.2112,1.1266,1.0716,1.1846
0.2194,1.1344,1.0813,1.19
0.2279,1.1352,1.0821,1.1908
0.2368,1.144,1.0931,1.1973
0.246,1.1671,1.1168,1.2197
0.2556,1.1867,1.1233,1.2537
0.2655,1.2047,1.1286,1.2859
0.2759,1.2592,1.1794,1.3444
0.2866,1.3643,1.2849,1.4485
0.2978,1.4729,1.3889,1.562
0.3094,1.5452,1.4547,1.6414
0.3214,1.5908,1.4824,1.7073
0.3339,1.6252,1.4949,1.7668
0.3469,1.6581,1.518,1.8112
0.3604,1.6965,1.5486,1.8585
0.3745,1.7306,1.578,1.898
0.3891,1.7378,1.602,1.8851
0.4042,1.717,1.616,1.8243
0.4199,1.7028,1.6238,1.7856
0.4363,1.7151,1.6368,1.797
0.4533,1.7217,1.6499,1.7966
0.4709,1.6973,1.636,1.761
0.4893,1.6638,1.6045,1.7252
0.5083,1.6393,1.5718,1.7098
0.5281,1.6159,1.5395,1.6962
0.5487,1.5901,1.5092,1.6754
0.57,1.5766,1.4599,1.7026
0.5922,1.586,1.4479,1.7373
0.6153,1.6122,1.4932,1.7408
0.6392,1.6387,1.5498,1.7327
0.6641,1.652,1.5849,1.722
0.69,1.6532,1.594,1.7147
0.7168,1.6614,1.593,1.7328
0.7447,1.6954,1.5994,1.7972
0.7737,1.7389,1.6075,1.881
0.8039,1.7577,1.6123,1.9162
0.8352,1.7592,1.6182,1.9124
0.8677,1.7729,1.6408,1.9157
0.9015,1.7918,1.6931,1.8962
0.9366,1.7983,1.7122,1.8886
0.973,1.7963,1.684,1.916
1.0109,1.783,1.6672,1.9069
1.0503,1.7381,1.6275,1.8562
1.0912,1.6678,1.5568,1.7867
1.1336,1.6163,1.4926,1.7501
1.1778,1.619,1.475,1.7771
1.2236,1.6718,1.515,1.8449
1.2713,1.7415,1.5664,1.9362
1.3208,1.7964,1.5676,2.0585
1.3722,1.8204,1.5505,2.1373
1.4256,1.8027,1.5141,2.1463
1.4811,1.7435,1.4351,2.1182
1.5388,1.6807,1.3517,2.0898
1.5987,1.6481,1.2968,2.0944
1.661,1.6218,1.2508,2.1027
1.7256,1.5707,1.1913,2.0709
1.7928,1.5192,1.1376,2.0289
1.8626,1.5047,1.1304,2.0028
1.9351,1.5325,1.1614,2.0223
2.0105,1.5759,1.1916,2.0841
2.0888,1.6015,1.2001,2.1373
2.1701,1.5999,1.198,2.1367
2.2546,1.5746,1.1939,2.0765
2.3424,1.5223,1.1695,1.9814
2.4336,1.4495,1.1189,1.8779
2.5283,1.3729,1.0578,1.7818
2.6267,1.299,0.999,1.6889
2.729,1.2291,0.9459,1.5972
2.8353,1.1635,0.8929,1.5161
2.9456,1.0983,0.8336,1.4471
3.0603,1.0408,0.7832,1.3831
3.1795,1.0052,0.7625,1.3251
3.3033,0.9957,0.7723,1.2836
3.4319,1.0034,0.7936,1.2687
3.5655,1.0173,0.8082,1.2805
3.7043,1.0318,0.8164,1.304
3.8486,1.0474,0.8209,1.3363
3.9984,1.0808,0.829,1.409
4.1541,1.1681,0.8609,1.585
4.3158,1.3146,0.9143,1.8904
4.4838,1.4323,0.9438,2.1737
4.6584,1.415,0.9171,2.1834
4.8398,1.2853,0.8575,1.9264
5.0282,1.1569,0.8079,1.6567
5.224,1.0911,0.7891,1.5088
5.4274,1.076,0.8031,1.4416
5.6387,1.0987,0.8476,1.4241
5.8582,1.1537,0.9108,1.4614
6.0863,1.2209,0.967,1.5415
6.3233,1.2745,1.0034,1.6187
6.5695,1.3066,1.0154,1.6813
6.8253,1.3201,0.9975,1.747
7.091,1.3214,0.9678,1.8041
7.3671,1.3028,0.9447,1.7966
7.6539,1.2591,0.9261,1.7117
7.9519,1.2383,0.9238,1.6599
8.2615,1.2675,0.9481,1.6944
8.5832,1.3423,1.0055,1.7918
8.9173,1.4441,1.0855,1.9211
9.2645,1.5445,1.156,2.0637
9.6252,1.6294,1.207,2.1996
10.0,1.6992,1.2498,2.3101
