# hvsrpy output version 0.5.2
# File Name (),NA
# Method (),geometric-mean
# Azimuth (),0
# Window Length (s),3600.0
# Total Number of Windows (),24
# Frequency Domain Window Rejection Performed (),True
# Lower frequency limit for peaks (Hz),0.006
# Upper frequency limit for peaks (Hz),9.9
# Number of Standard Deviations Used for Rejection () [n],2
# Number of Accepted Windows (),17
# Number of Rejected Windows (),7
# Distribution of f0 (),lognormal
# Median f0 (Hz) [LMf0],0.0072
# Lognormal standard deviation f0 () [SigmaLNf0],0.1454
# 68 % Confidence Interval f0 (Hz),0.0062,to,0.0084
# Median T0 (s) [LMT0],138.3578
# Lognormal standard deviation T0 () [SigmaLNT0],0.1454
# 68 % Confidence Interval T0 (s),119.6339,to,160.0123
# Median Curve Distribution (),lognormal
# Median Curve Peak Frequency (Hz) [f0mc],0.0065
# Median Curve Peak Amplitude (),4.1772
# Frequency (Hz),Median Curve,1 STD Below Median Curve,1 STD Above Median Curve
0.005,3.1896,1.3303,7.6473
0.0052,3.2438,1.3002,8.0925
0.0054,3.2392,1.2984,8.0808
0.0056,3.2166,1.3672,7.5677
0.0058,3.313,1.5042,7.297
0.0061,3.6128,1.7565,7.4309
0.0063,4.0189,2.1131,7.6436
0.0065,4.1772,2.3378,7.4637
0.0068,3.874,2.1972,6.8302
0.0071,3.4134,1.7861,6.5234
0.0073,3.0904,1.534,6.226
0.0076,2.9973,1.532,5.8639
0.0079,3.0171,1.6057,5.6692
0.0082,2.9256,1.6468,5.1974
0.0085,2.7621,1.6885,4.5182
0.0089,2.6743,1.6569,4.3166
0.0092,2.6872,1.5587,4.6328
0.0096,2.6448,1.4888,4.6986
0.0099,2.5205,1.4253,4.4572
0.0103,2.4832,1.4062,4.3851
0.0107,2.5415,1.4672,4.4023
0.0112,2.5573,1.4822,4.4122
0.0116,2.4077,1.3954,4.1543
0.012,2.2183,1.32,3.728
0.0125,2.1555,1.2973,3.5816
0.013,2.2118,1.3184,3.7107
0.0135,2.2783,1.3619,3.8114
0.014,2.2595,1.3651,3.7398
0.0146,2.1566,1.3032,3.569
0.0151,2.0667,1.2388,3.448
0.0157,2.0639,1.248,3.4131
0.0163,2.1266,1.2756,3.5451
0.017,2.1512,1.2386,3.7361
0.0176,2.0866,1.141,3.8159
0.0183,2.0067,1.0524,3.8265
0.019,1.9746,1.0306,3.7833
0.0198,1.9564,1.0263,3.7296
0.0205,1.896,0.9979,3.6024
0.0213,1.8326,0.9816,3.4215
0.0222,1.8203,0.9937,3.3345
0.023,1.8567,1.0164,3.3916
0.0239,1.8935,1.0402,3.4468
0.0249,1.8816,1.0487,3.3762
0.0258,1.8414,1.0308,3.2893
0.0268,1.7994,0.9954,3.2529
0.0279,1.7391,0.9666,3.1289
0.029,1.6601,0.9528,2.8924
0.0301,1.6055,0.9587,2.6889
0.0313,1.611,0.9794,2.6497
0.0325,1.6424,0.9849,2.7388
0.0338,1.646,0.9717,2.7883
0.0351,1.6253,0.9501,2.7803
0.0364,1.6067,0.9451,2.7317
0.0379,1.6102,0.9633,2.6915
0.0393,1.6289,0.9709,2.7327
0.0409,1.6368,0.9592,2.7931
0.0425,1.6148,0.9499,2.7451
0.0441,1.5861,0.9665,2.6029
0.0458,1.5927,0.9932,2.5542
0.0476,1.6507,1.0235,2.6621
0.0495,1.7186,1.053,2.805
0.0514,1.728,1.0532,2.8354
0.0534,1.7077,1.0443,2.7926
0.0555,1.7297,1.07,2.796
0.0576,1.7784,1.1181,2.8286
0.0599,1.7805,1.1223,2.8249
0.0622,1.7268,1.077,2.7688
0.0646,1.6708,1.0506,2.6573
0.0671,1.65,1.0665,2.5528
0.0698,1.6712,1.1047,2.5283
0.0725,1.6901,1.1247,2.5398
0.0753,1.6327,1.0892,2.4473
0.0782,1.5193,1.0221,2.2584
0.0813,1.4291,0.9618,2.1234
0.0844,1.3757,0.9166,2.065
0.0877,1.3185,0.8706,1.9968
0.0911,1.238,0.8212,1.8664
0.0947,1.1517,0.7814,1.6974
0.0984,1.0828,0.7573,1.5482
0.1022,1.0501,0.7507,1.469
0.1062,1.0455,0.7605,1.4374
0.1103,1.0408,0.774,1.3996
0.1146,1.0286,0.7788,1.3583
0.1191,1.0195,0.7796,1.3333
0.1237,1.0179,0.7908,1.3101
0.1285,1.0099,0.7929,1.2863
0.1335,0.9788,0.7826,1.2241
0.1387,0.9185,0.7631,1.1055
0.1441,0.8369,0.7229,0.9688
0.1497,0.7645,0.6704,0.8717
0.1556,0.7241,0.6314,0.8305
0.1616,0.7092,0.6218,0.8088
0.1679,0.7039,0.6258,0.7918
0.1744,0.7072,0.6404,0.7809
0.1812,0.7267,0.6719,0.7861
0.1883,0.7583,0.698,0.8238
0.1956,0.7877,0.713,0.8703
0.2032,0.8066,0.705,0.9228
0.2112,0.8193,0.6778,0.9904
0.2194,0.837,0.6779,1.0335
0.2279,0.8586,0.7181,1.0267
0.2368,0.8732,0.783,0.9738
0.246,0.8725,0.82,0.9284
0.2556,0.8588,0.7978,0.9245
0.2655,0.8484,0.7948,0.9056
0.2759,0.855,0.8046,0.9087
0.2866,0.8737,0.816,0.9356
0.2978,0.8924,0.8263,0.9639
0.3094,0.9037,0.8389,0.9735
0.3214,0.9056,0.8328,0.9849
0.3339,0.9016,0.7906,1.0283
0.3469,0.889,0.7489,1.0553
0.3604,0.8659,0.7492,1.0007
0.3745,0.8422,0.7813,0.908
0.3891,0.8275,0.7831,0.8744
0.4042,0.82,0.7628,0.8815
0.4199,0.8072,0.7513,0.8673
0.4363,0.7873,0.7375,0.8405
0.4533,0.7701,0.7264,0.8165
0.4709,0.7584,0.7191,0.7998
0.4893,0.7563,0.7239,0.7902
0.5083,0.7785,0.7524,0.8056
0.5281,0.8222,0.7808,0.8658
0.5487,0.8563,0.815,0.8997
0.57,0.8686,0.8414,0.8966
0.5922,0.8844,0.8555,0.9142
0.6153,0.9147,0.8712,0.9602
0.6392,0.9393,0.9019,0.9783
0.6641,0.9485,0.9134,0.9849
0.69,0.9488,0.8678,1.0373
0.7168,0.9436,0.8454,1.0532
0.7447,0.942,0.858,1.0342
0.7737,0.9604,0.8988,1.0263
0.8039,0.9936,0.941,1.0492
0.8352,1.0083,0.9486,1.0719
0.8677,0.9884,0.9177,1.0646
0.9015,0.9559,0.8919,1.0243
0.9366,0.9312,0.8892,0.9752
0.973,0.9074,0.8747,0.9412
1.0109,0.876,0.8429,0.9104
1.0503,0.8512,0.8121,0.8922
1.0912,0.8502,0.8059,0.8969
1.1336,0.8745,0.8285,0.9231
1.1778,0.9156,0.8647,0.9695
1.2236,0.9642,0.8985,1.0346
1.2713,1.0108,0.9302,1.0983
1.3208,1.0499,0.9533,1.1565
1.3722,1.0882,0.9823,1.2056
1.4256,1.1351,1.0311,1.2496
1.4811,1.1898,1.0827,1.3075
1.5388,1.2479,1.1345,1.3726
1.5987,1.3104,1.18,1.4553
1.661,1.3783,1.2273,1.5478
1.7256,1.4452,1.2897,1.6196
1.7928,1.5048,1.3536,1.6728
1.8626,1.5695,1.4029,1.7559
1.9351,1.6646,1.464,1.8927
2.0105,1.7845,1.5348,2.0748
2.0888,1.8648,1.5769,2.2051
2.1701,1.849,1.5726,2.174
2.2546,1.7848,1.537,2.0726
2.3424,1.7436,1.5076,2.0167
2.4336,1.7366,1.4931,2.02
2.5283,1.7503,1.4834,2.0652
2.6267,1.7825,1.4778,2.15
2.729,1.8229,1.4814,2.243
2.8353,1.8454,1.493,2.2809
2.9456,1.8402,1.5004,2.2571
3.0603,1.8208,1.4997,2.2107
3.1795,1.8128,1.5033,2.1859
3.3033,1.8304,1.522,2.2012
3.4319,1.8658,1.5469,2.2504
3.5655,1.9007,1.5709,2.2999
3.7043,1.925,1.6016,2.3138
3.8486,1.9356,1.64,2.2843
3.9984,1.9228,1.6632,2.2229
4.1541,1.8786,1.6427,2.1484
4.3158,1.8124,1.5771,2.0829
4.4838,1.7434,1.4943,2.0341
4.6584,1.6744,1.4078,1.9915
4.8398,1.587,1.3114,1.9204
5.0282,1.4747,1.2058,1.8034
5.224,1.3622,1.1069,1.6763
5.4274,1.2739,1.0232,1.5859
5.6387,1.2086,0.9541,1.5309
5.8582,1.1586,0.9025,1.4875
6.0863,1.1226,0.8702,1.4483
6.3233,1.0961,0.851,1.4118
6.5695,1.0748,0.8394,1.3762
6.8253,1.062,0.8395,1.3436
7.091,1.0575,0.8525,1.3119
7.3671,1.0491,0.8669,1.2697
7.6539,1.0261,0.8691,1.2115
7.9519,0.993,0.8558,1.1521
8.2615,0.9638,0.8295,1.1199
8.5832,0.9442,0.7968,1.1187
8.9173,0.9249,0.7721,1.108
9.2645,0.8999,0.7639,1.0601
9.6252,0.8754,0.7645,1.0025
10.0,0.8604,0.7635,0.9695
