# hvsrpy output version 0.5.2
# File Name (),NA
# Method (),geometric-mean
# Azimuth (),0
# Window Length (s),1200.0
# Total Number of Windows (),72
# Frequency Domain Window Rejection Performed (),True
# Lower frequency limit for peaks (Hz),0.1
# Upper frequency limit for peaks (Hz),5.0
# Number of Standard Deviations Used for Rejection () [n],2
# Number of Accepted Windows (),71
# Number of Rejected Windows (),1
# Distribution of f0 (),lognormal
# Median f0 (Hz) [LMf0],0.6514
# Lognormal standard deviation f0 () [SigmaLNf0],0.6279
# 68 % Confidence Interval f0 (Hz),0.3477,to,1.2204
# Median T0 (s) [LMT0],1.5352
# Lognormal standard deviation T0 () [SigmaLNT0],0.6279
# 68 % Confidence Interval T0 (s),0.8194,to,2.8763
# Median Curve Distribution (),lognormal
# Median Curve Peak Frequency (Hz) [f0mc],0.4302
# Median Curve Peak Amplitude (),2.2552
# Frequency (Hz),Median Curve,1 STD Below Median Curve,1 STD Above Median Curve
0.05,1.2331,0.8054,1.8879
0.0512,1.2809,0.8508,1.9282
0.0524,1.3307,0.8962,1.9758
0.0536,1.3809,0.9427,2.0227
0.0548,1.4366,1.0016,2.0607
0.0561,1.5038,1.0846,2.0849
0.0574,1.5833,1.184,2.1172
0.0588,1.6707,1.2786,2.1832
0.0602,1.7575,1.3605,2.2703
0.0616,1.8341,1.4295,2.3531
0.063,1.8952,1.473,2.4386
0.0645,1.9385,1.4845,2.5315
0.066,1.9607,1.4799,2.5978
0.0675,1.9554,1.4681,2.6045
0.0691,1.9136,1.4404,2.5422
0.0707,1.8314,1.3863,2.4193
0.0724,1.7187,1.3087,2.2571
0.0741,1.5958,1.2226,2.0831
0.0758,1.4823,1.1456,1.9179
0.0776,1.3887,1.086,1.7757
0.0794,1.3164,1.0404,1.6657
0.0813,1.2618,1.0018,1.5892
0.0832,1.2205,0.968,1.5388
0.0851,1.19,0.943,1.5017
0.0871,1.1685,0.9303,1.4677
0.0892,1.1529,0.9285,1.4317
0.0913,1.1401,0.934,1.3918
0.0934,1.1285,0.943,1.3505
0.0956,1.1178,0.9482,1.3178
0.0978,1.1069,0.9434,1.2986
0.1001,1.0942,0.9313,1.2855
0.1025,1.0816,0.9205,1.271
0.1049,1.0761,0.9181,1.2613
0.1073,1.0848,0.9278,1.2684
0.1098,1.1094,0.9523,1.2924
0.1124,1.1445,0.9903,1.3227
0.115,1.1805,1.0303,1.3527
0.1177,1.2083,1.0569,1.3814
0.1205,1.2208,1.0659,1.3983
0.1233,1.2135,1.0612,1.3876
0.1262,1.1853,1.0433,1.3465
0.1291,1.1423,1.0148,1.2858
0.1322,1.097,0.9832,1.2239
0.1352,1.0616,0.956,1.179
0.1384,1.0432,0.9381,1.1601
0.1417,1.0426,0.9327,1.1655
0.145,1.056,0.9396,1.1869
0.1484,1.077,0.9549,1.2146
0.1518,1.0981,0.9723,1.2401
0.1554,1.1146,0.987,1.2587
0.159,1.1263,0.9992,1.2695
0.1628,1.1366,1.0135,1.2746
0.1666,1.1491,1.0307,1.2811
0.1705,1.1652,1.048,1.2955
0.1745,1.1842,1.0663,1.3152
0.1785,1.2055,1.0885,1.3352
0.1827,1.2296,1.1153,1.3556
0.187,1.2561,1.1452,1.3778
0.1914,1.2833,1.1767,1.3997
0.1959,1.309,1.2062,1.4206
0.2004,1.3324,1.2279,1.4459
0.2051,1.3541,1.2414,1.477
0.2099,1.3749,1.2547,1.5066
0.2149,1.3952,1.2737,1.5282
0.2199,1.4149,1.2955,1.5454
0.225,1.4345,1.3134,1.5668
0.2303,1.4546,1.3272,1.5943
0.2357,1.4762,1.3439,1.6215
0.2412,1.4998,1.3684,1.6438
0.2469,1.5258,1.3987,1.6646
0.2526,1.5569,1.4316,1.6932
0.2585,1.5986,1.4702,1.7382
0.2646,1.6563,1.5219,1.8026
0.2708,1.73,1.5899,1.8825
0.2771,1.8109,1.6683,1.9658
0.2836,1.8843,1.7411,2.0392
0.2903,1.936,1.7901,2.0937
0.2971,1.9603,1.8085,2.1249
0.304,1.9631,1.8052,2.1348
0.3111,1.958,1.7955,2.1352
0.3184,1.9584,1.792,2.1403
0.3259,1.9706,1.802,2.1549
0.3335,1.9931,1.8264,2.175
0.3413,2.0194,1.8567,2.1964
0.3493,2.0417,1.8781,2.2195
0.3575,2.0555,1.8832,2.2435
0.3658,2.0634,1.8806,2.2641
0.3744,2.0732,1.8858,2.2792
0.3832,2.0928,1.9082,2.2953
0.3921,2.1263,1.9461,2.3232
0.4013,2.1703,1.9919,2.3647
0.4107,2.2142,2.0375,2.4062
0.4203,2.2451,2.0719,2.4327
0.4302,2.2552,2.0876,2.4362
0.4402,2.2442,2.0878,2.4122
0.4506,2.2157,2.0773,2.3634
0.4611,2.1723,2.0509,2.3009
0.4719,2.1143,1.9993,2.236
0.4829,2.0449,1.9245,2.1728
0.4942,1.973,1.8445,2.1105
0.5058,1.911,1.7813,2.0501
0.5177,1.867,1.7445,1.9982
0.5298,1.8406,1.7262,1.9627
0.5422,1.8226,1.7112,1.9413
0.5549,1.802,1.6905,1.9209
0.5679,1.7733,1.6628,1.891
0.5812,1.7385,1.6316,1.8525
0.5948,1.7038,1.5997,1.8147
0.6087,1.6744,1.5686,1.7873
0.6229,1.6531,1.5434,1.7706
0.6375,1.6419,1.5319,1.7598
0.6525,1.6436,1.5388,1.7555
0.6677,1.662,1.5647,1.7653
0.6834,1.6993,1.607,1.797
0.6994,1.7529,1.6609,1.8499
0.7157,1.8138,1.7195,1.9133
0.7325,1.871,1.7709,1.9767
0.7496,1.9158,1.8051,2.0333
0.7672,1.9468,1.8243,2.0775
0.7851,1.9672,1.838,2.1055
0.8035,1.9797,1.8507,2.1178
0.8223,1.983,1.8559,2.1187
0.8416,1.9754,1.845,2.1149
0.8613,1.9616,1.8218,2.1121
0.8815,1.9531,1.8031,2.1156
0.9021,1.9626,1.8071,2.1314
0.9232,1.9957,1.8414,2.1629
0.9448,2.048,1.8967,2.2113
0.9669,2.107,1.951,2.2755
0.9896,2.1591,1.988,2.3449
1.0128,2.1952,2.0067,2.4014
1.0365,2.2115,2.0144,2.4279
1.0607,2.207,2.0177,2.414
1.0856,2.1832,2.0145,2.3661
1.111,2.1449,1.9922,2.3092
1.137,2.098,1.9453,2.2628
1.1636,2.0487,1.8909,2.2196
1.1908,2.0023,1.8474,2.1703
1.2187,1.9647,1.817,2.1243
1.2473,1.9411,1.7907,2.1041
1.2765,1.9342,1.7629,2.1222
1.3063,1.9418,1.7388,2.1686
1.3369,1.958,1.7252,2.2223
1.3682,1.977,1.7247,2.2662
1.4003,1.9958,1.7349,2.2958
1.433,2.0148,1.7508,2.3186
1.4666,2.0364,1.769,2.3441
1.5009,2.0633,1.7923,2.3753
1.5361,2.0956,1.825,2.4062
1.572,2.1279,1.8656,2.427
1.6088,2.1503,1.9044,2.4278
1.6465,2.1533,1.9286,2.4042
1.685,2.1356,1.9302,2.3628
1.7245,2.1055,1.9116,2.3191
1.7649,2.0757,1.8836,2.2874
1.8062,2.0542,1.859,2.2698
1.8485,2.0404,1.8426,2.2594
1.8917,2.0275,1.8276,2.2493
1.936,2.0077,1.8035,2.235
1.9813,1.976,1.7651,2.212
2.0277,1.9314,1.7141,2.1762
2.0752,1.8773,1.6571,2.1269
2.1238,1.8209,1.6012,2.0707
2.1735,1.7707,1.5533,2.0185
2.2244,1.7331,1.5185,1.9781
2.2765,1.7085,1.4974,1.9495
2.3298,1.6913,1.4849,1.9263
2.3843,1.674,1.473,1.9025
2.4401,1.653,1.4563,1.8764
2.4973,1.6302,1.4369,1.8496
2.5557,1.6099,1.4199,1.8255
2.6155,1.5941,1.4071,1.8059
2.6768,1.5808,1.3957,1.7906
2.7395,1.5669,1.3803,1.7788
2.8036,1.5504,1.3573,1.771
2.8692,1.5302,1.3267,1.7648
2.9364,1.5044,1.2904,1.754
3.0051,1.4706,1.2479,1.733
3.0755,1.4265,1.198,1.6985
3.1475,1.3735,1.143,1.6506
3.2212,1.3175,1.0876,1.5959
3.2966,1.2665,1.0372,1.5464
3.3738,1.2269,0.9955,1.5121
3.4528,1.2001,0.964,1.4941
3.5336,1.1829,0.943,1.4838
3.6163,1.1698,0.931,1.4699
3.701,1.1565,0.9246,1.4467
3.7876,1.1408,0.919,1.4162
3.8763,1.1236,0.9116,1.385
3.967,1.1083,0.9028,1.3606
4.0599,1.0992,0.8952,1.3497
4.155,1.0995,0.8913,1.3563
4.2522,1.1101,0.8927,1.3804
4.3518,1.1291,0.8987,1.4185
4.4537,1.153,0.9076,1.4647
4.5579,1.1786,0.9202,1.5095
4.6647,1.204,0.9391,1.5436
4.7739,1.2284,0.9653,1.5631
4.8856,1.2507,0.9958,1.5709
5.0,1.2693,1.0248,1.5721
