# hvsrpy output version 0.5.2
# File Name (),NA
# Method (),geometric-mean
# Azimuth (),0
# Window Length (s),1200.0
# Total Number of Windows (),72
# Frequency Domain Window Rejection Performed (),True
# Lower frequency limit for peaks (Hz),0.1
# Upper frequency limit for peaks (Hz),5.0
# Number of Standard Deviations Used for Rejection () [n],2
# Number of Accepted Windows (),72
# Number of Rejected Windows (),0
# Distribution of f0 (),lognormal
# Median f0 (Hz) [LMf0],0.7144
# Lognormal standard deviation f0 () [SigmaLNf0],0.6805
# 68 % Confidence Interval f0 (Hz),0.3617,to,1.4107
# Median T0 (s) [LMT0],1.3999
# Lognormal standard deviation T0 () [SigmaLNT0],0.6805
# 68 % Confidence Interval T0 (s),0.7089,to,2.7645
# Median Curve Distribution (),lognormal
# Median Curve Peak Frequency (Hz) [f0mc],0.4302
# Median Curve Peak Amplitude (),2.2432
# Frequency (Hz),Median Curve,1 STD Below Median Curve,1 STD Above Median Curve
0.05,1.4931,0.9307,2.3954
0.0512,1.5296,0.9734,2.4036
0.0524,1.5778,1.0335,2.4088
0.0536,1.6318,1.0981,2.4249
0.0548,1.68,1.153,2.4479
0.0561,1.7115,1.1895,2.4626
0.0574,1.7239,1.2058,2.4646
0.0588,1.7255,1.2129,2.4548
0.0602,1.7284,1.229,2.4309
0.0616,1.7402,1.262,2.3996
0.063,1.7591,1.3032,2.3745
0.0645,1.7763,1.337,2.3598
0.066,1.7866,1.3579,2.3507
0.0675,1.7962,1.376,2.3448
0.0691,1.814,1.4047,2.3426
0.0707,1.8366,1.4433,2.337
0.0724,1.8465,1.4766,2.3089
0.0741,1.8278,1.4846,2.2503
0.0758,1.7798,1.4617,2.1671
0.0776,1.7104,1.4199,2.0603
0.0794,1.6261,1.3696,1.9307
0.0813,1.5333,1.3077,1.7978
0.0832,1.4426,1.2293,1.6931
0.0851,1.3665,1.1482,1.6263
0.0871,1.3131,1.0867,1.5866
0.0892,1.2848,1.0555,1.5638
0.0913,1.278,1.053,1.5512
0.0934,1.285,1.0701,1.543
0.0956,1.2962,1.0958,1.5332
0.0978,1.3035,1.1203,1.5167
0.1001,1.3021,1.1333,1.496
0.1025,1.2919,1.1281,1.4796
0.1049,1.2772,1.1109,1.4683
0.1073,1.2647,1.0975,1.4574
0.1098,1.2624,1.097,1.4527
0.1124,1.2754,1.1078,1.4683
0.115,1.3004,1.1247,1.5035
0.1177,1.3246,1.1409,1.5378
0.1205,1.3341,1.1479,1.5506
0.1233,1.3244,1.1412,1.5371
0.1262,1.3003,1.1231,1.5055
0.1291,1.2693,1.1001,1.4645
0.1322,1.2369,1.0778,1.4193
0.1352,1.2062,1.0592,1.3737
0.1384,1.1796,1.0435,1.3334
0.1417,1.1586,1.0298,1.3036
0.145,1.1443,1.02,1.2839
0.1484,1.1354,1.0148,1.2704
0.1518,1.1283,1.0103,1.2601
0.1554,1.1199,1.0013,1.2526
0.159,1.1099,0.9894,1.2451
0.1628,1.1001,0.9815,1.233
0.1666,1.0927,0.9774,1.2215
0.1705,1.0895,0.9708,1.2226
0.1745,1.0923,0.9637,1.2381
0.1785,1.1041,0.9682,1.2591
0.1827,1.1283,0.9943,1.2804
0.187,1.1674,1.043,1.3066
0.1914,1.2204,1.1056,1.3471
0.1959,1.2819,1.1676,1.4075
0.2004,1.3433,1.2182,1.4813
0.2051,1.3965,1.2562,1.5526
0.2099,1.4387,1.2879,1.6073
0.2149,1.4732,1.3198,1.6443
0.2199,1.5053,1.3528,1.6751
0.225,1.5385,1.3845,1.7097
0.2303,1.572,1.4159,1.7452
0.2357,1.6025,1.4484,1.773
0.2412,1.6275,1.479,1.7908
0.2469,1.6483,1.5054,1.8049
0.2526,1.6708,1.5291,1.8256
0.2585,1.7023,1.5541,1.8645
0.2646,1.7474,1.5845,1.9269
0.2708,1.8052,1.6256,2.0045
0.2771,1.8678,1.6778,2.0793
0.2836,1.9225,1.7316,2.1345
0.2903,1.9579,1.7737,2.1612
0.2971,1.9717,1.7972,2.1631
0.304,1.9731,1.8044,2.1576
0.3111,1.9759,1.8055,2.1624
0.3184,1.9889,1.8151,2.1792
0.3259,2.0126,1.8418,2.1993
0.3335,2.0415,1.8807,2.2161
0.3413,2.0678,1.917,2.2304
0.3493,2.0857,1.9367,2.2462
0.3575,2.0953,1.9407,2.2622
0.3658,2.1023,1.9409,2.2772
0.3744,2.1143,1.9468,2.2962
0.3832,2.1356,1.9641,2.3219
0.3921,2.1651,1.9947,2.35
0.4013,2.1975,2.0345,2.3736
0.4107,2.2253,2.0735,2.3883
0.4203,2.2416,2.1006,2.3922
0.4302,2.2432,2.1097,2.3852
0.4402,2.231,2.1003,2.3699
0.4506,2.2074,2.0755,2.3477
0.4611,2.1734,2.0394,2.3162
0.4719,2.1282,1.9927,2.2729
0.4829,2.0718,1.9334,2.2202
0.4942,2.0089,1.8666,2.1621
0.5058,1.9487,1.8064,2.1021
0.5177,1.9003,1.7636,2.0475
0.5298,1.8669,1.7368,2.0068
0.5422,1.8442,1.7163,1.9816
0.5549,1.8239,1.6949,1.9626
0.5679,1.8001,1.6714,1.9388
0.5812,1.7721,1.6461,1.9077
0.5948,1.7426,1.6195,1.875
0.6087,1.7148,1.593,1.8458
0.6229,1.6914,1.5706,1.8216
0.6375,1.6758,1.5563,1.8044
0.6525,1.6737,1.555,1.8015
0.6677,1.6924,1.5717,1.8224
0.6834,1.7365,1.6113,1.8715
0.6994,1.8024,1.6737,1.9411
0.7157,1.8774,1.7495,2.0147
0.7325,1.9449,1.8222,2.076
0.7496,1.9932,1.8764,2.1173
0.7672,2.0201,1.9061,2.1409
0.7851,2.0306,1.9171,2.1508
0.8035,2.0297,1.9182,2.1477
0.8223,2.0188,1.9113,2.1323
0.8416,1.9986,1.8936,2.1093
0.8613,1.9744,1.8674,2.0875
0.8815,1.9568,1.844,2.0765
0.9021,1.957,1.8381,2.0836
0.9232,1.9803,1.8571,2.1118
0.9448,2.0232,1.8967,2.1582
0.9669,2.0748,1.9439,2.2145
0.9896,2.1213,1.9842,2.2678
1.0128,2.1512,2.0082,2.3043
1.0365,2.1576,2.0112,2.3146
1.0607,2.1396,1.9939,2.2961
1.0856,2.1022,1.9621,2.2524
1.111,2.0534,1.9222,2.1937
1.137,2.0004,1.876,2.1331
1.1636,1.9468,1.8237,2.0782
1.1908,1.8948,1.7677,2.031
1.2187,1.8484,1.7129,1.9946
1.2473,1.8137,1.6647,1.9761
1.2765,1.7959,1.6284,1.9806
1.3063,1.7953,1.6072,2.0055
1.3369,1.808,1.6006,2.0424
1.3682,1.8288,1.6046,2.0842
1.4003,1.8538,1.6148,2.1282
1.433,1.8811,1.6285,2.1729
1.4666,1.909,1.6447,2.2157
1.5009,1.936,1.662,2.2551
1.5361,1.9616,1.679,2.2918
1.572,1.9854,1.6939,2.3271
1.6088,2.0047,1.7037,2.3589
1.6465,2.0146,1.7049,2.3806
1.685,2.0118,1.6976,2.3842
1.7245,1.9995,1.6876,2.3691
1.7649,1.9862,1.6822,2.3451
1.8062,1.9798,1.6859,2.3249
1.8485,1.9831,1.6982,2.3159
1.8917,1.9936,1.7146,2.318
1.936,2.006,1.731,2.3247
1.9813,2.0145,1.744,2.3269
2.0277,2.0139,1.751,2.3164
2.0752,2.0017,1.7497,2.29
2.1238,1.9789,1.7397,2.2511
2.1735,1.9501,1.7233,2.2067
2.2244,1.9203,1.7048,2.163
2.2765,1.8916,1.6862,2.122
2.3298,1.8614,1.6653,2.0806
2.3843,1.8251,1.6368,2.035
2.4401,1.7814,1.5957,1.9887
2.4973,1.7344,1.5445,1.9476
2.5557,1.6896,1.4932,1.9118
2.6155,1.65,1.4491,1.8788
2.6768,1.6141,1.412,1.8453
2.7395,1.5778,1.3779,1.8068
2.8036,1.5365,1.3419,1.7592
2.8692,1.4876,1.3002,1.702
2.9364,1.4317,1.2507,1.6389
3.0051,1.3717,1.1935,1.5765
3.0755,1.3113,1.1315,1.5196
3.1475,1.2545,1.07,1.4708
3.2212,1.2058,1.0145,1.433
3.2966,1.1682,0.9685,1.409
3.3738,1.142,0.9328,1.3983
3.4528,1.1242,0.9049,1.3966
3.5336,1.1097,0.8803,1.399
3.6163,1.0951,0.8554,1.4019
3.701,1.0799,0.83,1.4051
3.7876,1.0672,0.8075,1.4104
3.8763,1.061,0.7927,1.4203
3.967,1.0648,0.789,1.4371
4.0599,1.0793,0.7964,1.4626
4.155,1.1032,0.8124,1.498
4.2522,1.1352,0.8341,1.5451
4.3518,1.1743,0.8601,1.6031
4.4537,1.2186,0.8913,1.666
4.5579,1.2641,0.9275,1.7229
4.6647,1.3055,0.9662,1.7639
4.7739,1.3379,1.0036,1.7836
4.8856,1.3592,1.0355,1.784
5.0,1.3699,1.0587,1.7726
