# hvsrpy output version 0.5.2
# File Name (),NA
# Method (),geometric-mean
# Azimuth (),0
# Window Length (s),1200.0
# Total Number of Windows (),72
# Frequency Domain Window Rejection Performed (),True
# Lower frequency limit for peaks (Hz),0.1
# Upper frequency limit for peaks (Hz),10.0
# Number of Standard Deviations Used for Rejection () [n],2
# Number of Accepted Windows (),61
# Number of Rejected Windows (),11
# Distribution of f0 (),lognormal
# Median f0 (Hz) [LMf0],6.4547
# Lognormal standard deviation f0 () [SigmaLNf0],0.0346
# 68 % Confidence Interval f0 (Hz),6.2355,to,6.6816
# Median T0 (s) [LMT0],0.1549
# Lognormal standard deviation T0 () [SigmaLNT0],0.0346
# 68 % Confidence Interval T0 (s),0.1497,to,0.1604
# Median Curve Distribution (),lognormal
# Median Curve Peak Frequency (Hz) [f0mc],6.5312
# Median Curve Peak Amplitude (),3.7471
# Frequency (Hz),Median Curve,1 STD Below Median Curve,1 STD Above Median Curve
0.05,1.1989,0.8268,1.7384
0.0513,1.2355,0.8909,1.7132
0.0527,1.2632,0.9366,1.7036
0.0542,1.2843,0.9682,1.7036
0.0556,1.304,0.9897,1.7181
0.0571,1.3257,1.0021,1.7538
0.0587,1.3504,1.0067,1.8114
0.0602,1.3742,1.0158,1.859
0.0619,1.3941,1.039,1.8705
0.0635,1.4137,1.0726,1.8633
0.0653,1.4358,1.1102,1.8569
0.067,1.457,1.1441,1.8554
0.0688,1.4703,1.1611,1.862
0.0707,1.4699,1.16,1.8626
0.0726,1.4559,1.1495,1.8441
0.0745,1.4353,1.1277,1.8267
0.0766,1.4135,1.103,1.8114
0.0786,1.3903,1.0928,1.7689
0.0807,1.3647,1.0951,1.7006
0.0829,1.3412,1.0951,1.6426
0.0852,1.3248,1.0922,1.6069
0.0875,1.3118,1.0934,1.5738
0.0898,1.2945,1.0902,1.5372
0.0922,1.2726,1.0707,1.5126
0.0947,1.2511,1.0438,1.4995
0.0973,1.2299,1.0256,1.4749
0.0999,1.2032,1.0146,1.4269
0.1026,1.1698,1.0017,1.3662
0.1054,1.1363,0.982,1.3149
0.1082,1.1085,0.9587,1.2818
0.1111,1.0862,0.9371,1.2591
0.1141,1.0665,0.9193,1.2373
0.1172,1.0484,0.9057,1.2135
0.1204,1.0334,0.8967,1.191
0.1236,1.0229,0.8919,1.1732
0.127,1.0152,0.8886,1.1597
0.1304,1.0074,0.8839,1.1481
0.1339,0.9984,0.8767,1.1369
0.1375,0.9885,0.8682,1.1255
0.1412,0.9791,0.8604,1.1142
0.145,0.971,0.855,1.1029
0.149,0.9645,0.8531,1.0904
0.153,0.9601,0.8551,1.078
0.1571,0.9591,0.8586,1.0714
0.1613,0.9604,0.8579,1.0751
0.1657,0.9589,0.8505,1.081
0.1702,0.9505,0.8423,1.0725
0.1748,0.9384,0.8395,1.0489
0.1795,0.9316,0.8398,1.0335
0.1843,0.9372,0.8409,1.0445
0.1893,0.9542,0.8527,1.0679
0.1944,0.9758,0.8775,1.0852
0.1996,0.9952,0.9006,1.0998
0.205,1.01,0.9098,1.1212
0.2106,1.0215,0.9138,1.1418
0.2162,1.0323,0.9223,1.1555
0.2221,1.0458,0.9364,1.168
0.2281,1.0648,0.956,1.1859
0.2342,1.0889,0.9809,1.2089
0.2405,1.1132,1.0062,1.2316
0.247,1.1305,1.0238,1.2484
0.2537,1.1365,1.03,1.254
0.2605,1.1319,1.0251,1.2499
0.2676,1.1197,1.0115,1.2395
0.2748,1.1022,0.994,1.2222
0.2822,1.0829,0.9777,1.1995
0.2898,1.0681,0.9678,1.1788
0.2976,1.0619,0.9663,1.1669
0.3057,1.0616,0.9674,1.165
0.3139,1.0613,0.9657,1.1663
0.3224,1.0607,0.9646,1.1664
0.3311,1.066,0.9699,1.1717
0.34,1.0803,0.9833,1.1869
0.3492,1.0969,0.9992,1.2041
0.3586,1.1043,1.0071,1.2109
0.3683,1.0974,1.0021,1.2019
0.3782,1.0816,0.9907,1.1808
0.3884,1.0678,0.9832,1.1596
0.3989,1.0645,0.9866,1.1484
0.4097,1.0725,1.0013,1.1488
0.4207,1.0853,1.0164,1.1589
0.4321,1.0936,1.0216,1.1706
0.4437,1.0913,1.0194,1.1682
0.4557,1.0788,1.0156,1.146
0.468,1.0615,1.0103,1.1154
0.4806,1.0462,0.9966,1.0983
0.4936,1.038,0.9787,1.1008
0.5069,1.0388,0.9709,1.1115
0.5206,1.0474,0.9769,1.123
0.5347,1.0602,0.9928,1.1322
0.5491,1.0727,1.0111,1.1379
0.5639,1.0808,1.0224,1.1425
0.5791,1.0811,1.0221,1.1435
0.5947,1.0715,1.0116,1.1348
0.6108,1.053,0.9924,1.1174
0.6273,1.0317,0.9702,1.097
0.6442,1.0154,0.9543,1.0805
0.6616,1.0092,0.9473,1.075
0.6794,1.0112,0.9479,1.0787
0.6978,1.015,0.954,1.0798
0.7166,1.015,0.9614,1.0716
0.7359,1.011,0.9631,1.0613
0.7558,1.0065,0.9571,1.0586
0.7762,1.0058,0.952,1.0627
0.7971,1.0112,0.9548,1.071
0.8186,1.0227,0.9652,1.0837
0.8407,1.038,0.9796,1.0998
0.8634,1.0533,0.9942,1.1158
0.8867,1.0649,1.0058,1.1275
0.9106,1.0714,1.0124,1.1338
0.9352,1.0735,1.0161,1.1342
0.9604,1.0732,1.021,1.1281
0.9863,1.0713,1.026,1.1185
1.0129,1.068,1.028,1.1095
1.0403,1.0647,1.0286,1.102
1.0683,1.0631,1.0293,1.098
1.0972,1.0619,1.0251,1.1001
1.1268,1.0566,1.0128,1.1023
1.1572,1.0441,0.9945,1.0961
1.1884,1.0273,0.9756,1.0817
1.2205,1.0127,0.9619,1.0662
1.2534,1.0056,0.9564,1.0573
1.2872,1.0065,0.959,1.0564
1.3219,1.0135,0.9684,1.0607
1.3576,1.0242,0.9815,1.0689
1.3942,1.0371,0.9953,1.0807
1.4319,1.0502,1.0081,1.0941
1.4705,1.061,1.0189,1.1048
1.5102,1.0665,1.0253,1.1094
1.5509,1.0648,1.024,1.1072
1.5928,1.0573,1.0156,1.1007
1.6358,1.0503,1.0058,1.0967
1.6799,1.0532,1.0045,1.1043
1.7252,1.0718,1.0198,1.1265
1.7718,1.104,1.0522,1.1584
1.8196,1.1411,1.0891,1.1956
1.8687,1.174,1.1126,1.2389
1.9191,1.1976,1.1205,1.2799
1.9709,1.2112,1.1223,1.3072
2.0241,1.2176,1.1258,1.3169
2.0787,1.2219,1.1347,1.3158
2.1348,1.2314,1.1468,1.3223
2.1924,1.2516,1.159,1.3516
2.2515,1.2814,1.1757,1.3965
2.3123,1.3132,1.1994,1.4378
2.3747,1.3387,1.224,1.4641
2.4387,1.3539,1.24,1.4783
2.5045,1.3613,1.2435,1.4902
2.5721,1.3679,1.2422,1.5063
2.6415,1.3811,1.2476,1.5289
2.7128,1.4048,1.2629,1.5627
2.786,1.4387,1.2835,1.6127
2.8612,1.4791,1.3058,1.6754
2.9384,1.5196,1.3294,1.7371
3.0176,1.5531,1.3547,1.7804
3.0991,1.5775,1.3828,1.7996
3.1827,1.5983,1.4158,1.8044
3.2686,1.622,1.453,1.8107
3.3567,1.6473,1.4866,1.8254
3.4473,1.6639,1.5023,1.8428
3.5403,1.6649,1.4947,1.8544
3.6359,1.6612,1.4836,1.86
3.734,1.6766,1.495,1.8802
3.8347,1.7321,1.5433,1.944
3.9382,1.8376,1.6272,2.0752
4.0444,1.9862,1.7329,2.2764
4.1536,2.1525,1.8484,2.5067
4.2656,2.3013,1.9606,2.7011
4.3807,2.4075,2.0529,2.8234
4.4989,2.4717,2.1199,2.8819
4.6203,2.5068,2.1701,2.8956
4.745,2.517,2.1997,2.8802
4.873,2.497,2.1861,2.8522
5.0045,2.4506,2.1301,2.8193
5.1396,2.4048,2.077,2.7843
5.2782,2.4012,2.0812,2.7704
5.4207,2.4759,2.1733,2.8205
5.5669,2.6439,2.347,2.9783
5.7171,2.8904,2.5703,3.2504
5.8714,3.171,2.822,3.5632
6.0298,3.4312,3.0819,3.82
6.1925,3.6288,3.3005,3.9898
6.3596,3.7377,3.4202,4.0846
6.5312,3.7471,3.4321,4.091
6.7074,3.6739,3.3725,4.0023
6.8884,3.5621,3.2782,3.8707
7.0743,3.4543,3.1793,3.7531
7.2651,3.364,3.0937,3.6579
7.4612,3.2778,3.0083,3.5714
7.6625,3.1759,2.8947,3.4844
7.8692,3.0477,2.745,3.3838
8.0816,2.8989,2.5792,3.2582
8.2996,2.7493,2.4208,3.1223
8.5236,2.6172,2.2793,3.0052
8.7536,2.504,2.1496,2.9169
8.9898,2.3957,2.0168,2.8458
9.2323,2.2802,1.8742,2.7742
9.4814,2.1606,1.7339,2.6922
9.7373,2.0488,1.6108,2.6059
10.0,1.9547,1.511,2.5287
