# hvsrpy output version 0.5.2
# File Name (),NA
# Method (),geometric-mean
# Azimuth (),0
# Window Length (s),2000.0
# Total Number of Windows (),43
# Frequency Domain Window Rejection Performed (),True
# Lower frequency limit for peaks (Hz),0.005
# Upper frequency limit for peaks (Hz),2.0
# Number of Standard Deviations Used for Rejection () [n],2
# Number of Accepted Windows (),40
# Number of Rejected Windows (),3
# Distribution of f0 (),lognormal
# Median f0 (Hz) [LMf0],0.0131
# Lognormal standard deviation f0 () [SigmaLNf0],0.5145
# 68 % Confidence Interval f0 (Hz),0.0078,to,0.022
# Median T0 (s) [LMT0],76.1999
# Lognormal standard deviation T0 () [SigmaLNT0],0.5145
# 68 % Confidence Interval T0 (s),45.5511,to,127.4707
# Median Curve Distribution (),lognormal
# Median Curve Peak Frequency (Hz) [f0mc],0.0206
# Median Curve Peak Amplitude (),5.0742
# Frequency (Hz),Median Curve,1 STD Below Median Curve,1 STD Above Median Curve
0.005,1.5122,0.8383,2.7277
0.0052,1.5354,0.9321,2.5292
0.0053,1.6071,1.0097,2.5578
0.0055,1.6723,1.0179,2.7473
0.0056,1.6527,1.0553,2.5883
0.0058,1.6158,1.0321,2.5295
0.006,1.6202,0.9671,2.7144
0.0062,1.6337,0.9985,2.6731
0.0064,1.6309,1.0652,2.497
0.0066,1.6399,1.0641,2.5274
0.0068,1.6709,1.0507,2.6571
0.007,1.7196,1.0205,2.8976
0.0072,1.7829,0.9936,3.1991
0.0074,1.8325,0.9977,3.366
0.0076,1.8539,1.0008,3.4343
0.0079,1.8386,1.0141,3.3335
0.0081,1.7972,1.0293,3.1379
0.0083,1.7808,1.0484,3.0248
0.0086,1.8318,1.0647,3.1517
0.0089,1.9456,1.0789,3.5085
0.0091,2.0817,1.1098,3.9047
0.0094,2.2008,1.1475,4.2212
0.0097,2.2692,1.1713,4.3962
0.01,2.316,1.1528,4.6529
0.0103,2.3689,1.1119,5.0465
0.0106,2.4429,1.0824,5.5136
0.0109,2.536,1.0774,5.9692
0.0113,2.6372,1.1003,6.3211
0.0116,2.7601,1.1447,6.6551
0.012,2.9175,1.2108,7.0302
0.0123,3.1016,1.2757,7.5411
0.0127,3.2914,1.3213,8.1991
0.0131,3.4767,1.356,8.914
0.0135,3.691,1.395,9.7656
0.0139,3.9898,1.4514,10.9676
0.0143,4.3417,1.5076,12.5038
0.0148,4.6314,1.5207,14.1053
0.0152,4.8142,1.4895,15.5604
0.0157,4.9451,1.4539,16.8201
0.0162,5.0367,1.4288,17.7552
0.0167,5.061,1.4086,18.1846
0.0172,5.032,1.3916,18.1962
0.0177,4.9934,1.3734,18.1556
0.0182,4.9514,1.3459,18.2163
0.0188,4.9186,1.3158,18.3868
0.0194,4.9431,1.2957,18.8583
0.02,5.0204,1.2888,19.556
0.0206,5.0742,1.3092,19.6671
0.0212,5.0281,1.3541,18.6703
0.0219,4.8683,1.3762,17.2212
0.0225,4.6509,1.3431,16.1049
0.0232,4.4655,1.2764,15.6226
0.0239,4.3609,1.2088,15.7321
0.0247,4.3151,1.1561,16.106
0.0254,4.2788,1.1239,16.2892
0.0262,4.2256,1.109,16.1011
0.027,4.1589,1.1132,15.5377
0.0278,4.1128,1.1417,14.8154
0.0287,4.1217,1.1862,14.3213
0.0295,4.1462,1.2219,14.0692
0.0304,4.1071,1.2245,13.7758
0.0314,4.0007,1.1964,13.378
0.0323,3.8879,1.1665,12.9584
0.0333,3.8079,1.1596,12.5047
0.0343,3.764,1.1752,12.0552
0.0354,3.7409,1.1895,11.7649
0.0365,3.7078,1.1789,11.662
0.0376,3.6403,1.144,11.5837
0.0387,3.5531,1.1047,11.4277
0.0399,3.4718,1.0746,11.2164
0.0411,3.4103,1.0529,11.0454
0.0424,3.3684,1.03,11.0153
0.0437,3.3254,1.0007,11.0502
0.045,3.2653,0.9726,10.9626
0.0464,3.194,0.9586,10.6419
0.0478,3.1412,0.9658,10.2171
0.0493,3.1215,0.9875,9.8671
0.0508,3.1104,1.0105,9.5739
0.0523,3.0895,1.0329,9.2408
0.0539,3.0674,1.0638,8.8445
0.0556,3.0687,1.1084,8.4957
0.0573,3.1153,1.1685,8.3051
0.059,3.1939,1.2405,8.2235
0.0608,3.251,1.3033,8.109
0.0627,3.2391,1.3349,7.8593
0.0646,3.1677,1.3455,7.4574
0.0666,3.0797,1.3687,6.9297
0.0686,3.0013,1.4161,6.3609
0.0707,2.9215,1.465,5.826
0.0729,2.8058,1.4856,5.2991
0.0751,2.6333,1.4627,4.7407
0.0774,2.41,1.3962,4.16
0.0798,2.1634,1.3026,3.5931
0.0822,1.9335,1.2039,3.1054
0.0847,1.7527,1.1165,2.7516
0.0873,1.6319,1.0542,2.5263
0.09,1.5603,1.0284,2.3673
0.0927,1.5142,1.0342,2.2169
0.0956,1.4738,1.0488,2.0711
0.0985,1.434,1.0518,1.9551
0.1015,1.4004,1.0397,1.8863
0.1046,1.382,1.0239,1.8655
0.1078,1.381,1.0247,1.8611
0.1111,1.3835,1.046,1.83
0.1145,1.3703,1.0731,1.7499
0.118,1.3326,1.0934,1.624
0.1216,1.2753,1.0981,1.4812
0.1253,1.2115,1.0779,1.3618
0.1292,1.1527,1.0367,1.2818
0.1331,1.106,1.0015,1.2213
0.1372,1.0757,0.9857,1.1738
0.1414,1.0636,0.9778,1.1569
0.1457,1.067,0.9752,1.1674
0.1501,1.0811,0.9874,1.1837
0.1547,1.1042,1.0147,1.2015
0.1595,1.1384,1.0484,1.2362
0.1643,1.185,1.0843,1.295
0.1694,1.2366,1.1282,1.3554
0.1745,1.2767,1.1715,1.3913
0.1799,1.2923,1.1934,1.3994
0.1854,1.2904,1.1939,1.3948
0.191,1.2939,1.1968,1.3989
0.1969,1.317,1.2167,1.4254
0.2029,1.3555,1.2539,1.4653
0.2091,1.3964,1.2976,1.5027
0.2155,1.428,1.3302,1.533
0.2221,1.4481,1.348,1.5558
0.2289,1.4646,1.3614,1.5756
0.2359,1.4874,1.3799,1.6033
0.2431,1.5224,1.4095,1.6444
0.2505,1.5706,1.4532,1.6974
0.2582,1.6335,1.5155,1.7607
0.266,1.7145,1.6007,1.8364
0.2742,1.8093,1.7039,1.9213
0.2826,1.8987,1.7999,2.0028
0.2912,1.959,1.8542,2.0698
0.3001,1.9885,1.8621,2.1236
0.3093,2.0121,1.8648,2.1711
0.3187,2.0538,1.9019,2.2179
0.3285,2.112,1.9682,2.2662
0.3385,2.1604,2.0271,2.3024
0.3489,2.1746,2.056,2.3
0.3595,2.1587,2.0585,2.2637
0.3705,2.1435,2.0438,2.2479
0.3818,2.1586,2.0463,2.2772
0.3935,2.2084,2.0889,2.3349
0.4055,2.2687,2.1424,2.4024
0.4179,2.3048,2.1754,2.4418
0.4307,2.3025,2.1828,2.4287
0.4439,2.2752,2.1608,2.3956
0.4574,2.2347,2.111,2.3655
0.4714,2.1761,2.0472,2.3132
0.4858,2.1004,1.9732,2.2358
0.5007,2.0253,1.9047,2.1535
0.516,1.9685,1.8632,2.0798
0.5317,1.9305,1.8424,2.0228
0.548,1.8977,1.8139,1.9855
0.5647,1.859,1.7691,1.9535
0.582,1.8132,1.7195,1.9121
0.5998,1.7645,1.6736,1.8604
0.6181,1.7191,1.6351,1.8073
0.637,1.6864,1.6083,1.7683
0.6565,1.6792,1.6037,1.7583
0.6766,1.7075,1.6331,1.7852
0.6972,1.7701,1.6948,1.8486
0.7185,1.8487,1.7671,1.934
0.7405,1.9178,1.8297,2.0101
0.7631,1.9626,1.8692,2.0606
0.7865,1.9838,1.88,2.0932
0.8105,1.9845,1.8731,2.1026
0.8353,1.9659,1.8598,2.0781
0.8608,1.9391,1.8467,2.0361
0.8871,1.9275,1.8422,2.0168
0.9142,1.948,1.8581,2.0423
0.9422,1.9962,1.8984,2.099
0.971,2.0521,1.946,2.1641
1.0007,2.0963,1.9738,2.2265
1.0313,2.1169,1.9713,2.2733
1.0628,2.109,1.9477,2.2837
1.0953,2.0745,1.9027,2.2618
1.1287,2.0189,1.8283,2.2293
1.1632,1.9488,1.7387,2.1842
1.1988,1.8759,1.6596,2.1205
1.2354,1.8183,1.6073,2.0571
1.2732,1.7897,1.5815,2.0252
1.3121,1.7887,1.5722,2.0349
1.3522,1.8035,1.567,2.0757
1.3935,1.8246,1.5536,2.1429
1.4361,1.8466,1.5279,2.2317
1.48,1.8664,1.4933,2.3327
1.5253,1.8865,1.4545,2.4468
1.5719,1.9118,1.423,2.5684
1.6199,1.9386,1.4074,2.6703
1.6695,1.9498,1.3995,2.7165
1.7205,1.9323,1.3857,2.6947
1.7731,1.8975,1.3642,2.6393
1.8273,1.869,1.3395,2.6078
1.8831,1.8547,1.3102,2.6254
1.9407,1.8391,1.2759,2.651
2.0,1.8052,1.2375,2.6333
