# hvsrpy output version 0.5.2
# File Name (),NA
# Method (),geometric-mean
# Azimuth (),0
# Window Length (s),2000.0
# Total Number of Windows (),43
# Frequency Domain Window Rejection Performed (),True
# Lower frequency limit for peaks (Hz),0.005
# Upper frequency limit for peaks (Hz),2.0
# Number of Standard Deviations Used for Rejection () [n],2
# Number of Accepted Windows (),39
# Number of Rejected Windows (),4
# Distribution of f0 (),lognormal
# Median f0 (Hz) [LMf0],0.0091
# Lognormal standard deviation f0 () [SigmaLNf0],0.3364
# 68 % Confidence Interval f0 (Hz),0.0065,to,0.0128
# Median T0 (s) [LMT0],109.6104
# Lognormal standard deviation T0 () [SigmaLNT0],0.3364
# 68 % Confidence Interval T0 (s),78.3014,to,153.4384
# Median Curve Distribution (),lognormal
# Median Curve Peak Frequency (Hz) [f0mc],0.01
# Median Curve Peak Amplitude (),3.128
# Frequency (Hz),Median Curve,1 STD Below Median Curve,1 STD Above Median Curve
0.005,1.9998,1.0589,3.7769
0.0052,2.0417,1.1429,3.6471
0.0053,2.0729,1.2345,3.4806
0.0055,2.0469,1.2149,3.4487
0.0056,1.9362,1.1345,3.3044
0.0058,1.792,0.9971,3.2204
0.006,1.7047,0.8767,3.3145
0.0062,1.713,0.8717,3.3663
0.0064,1.7831,0.9437,3.3692
0.0066,1.8732,0.9999,3.5091
0.0068,1.9416,1.0187,3.7005
0.007,1.9532,1.0082,3.7838
0.0072,1.9014,0.9885,3.6577
0.0074,1.8365,0.9712,3.4729
0.0076,1.8378,0.9697,3.4831
0.0079,1.9284,0.9888,3.7607
0.0081,2.0637,1.0059,4.234
0.0083,2.1841,1.0196,4.6787
0.0086,2.2731,1.0301,5.0159
0.0089,2.364,1.015,5.5058
0.0091,2.5152,0.9977,6.3406
0.0094,2.7576,1.0239,7.4268
0.0097,3.0081,1.0756,8.4128
0.01,3.128,1.1045,8.8591
0.0103,3.0944,1.0806,8.8606
0.0106,2.9805,1.0078,8.8148
0.0109,2.842,0.9268,8.7152
0.0113,2.7303,0.8867,8.4067
0.0116,2.673,0.8887,8.0399
0.012,2.6436,0.8876,7.873
0.0123,2.5767,0.8528,7.7856
0.0127,2.4716,0.8101,7.5409
0.0131,2.3827,0.7844,7.2383
0.0135,2.3397,0.764,7.1655
0.0139,2.3336,0.7465,7.2949
0.0143,2.3428,0.7398,7.4196
0.0148,2.3562,0.7345,7.5584
0.0152,2.3534,0.7171,7.7239
0.0157,2.3169,0.6937,7.7386
0.0162,2.2529,0.6737,7.5339
0.0167,2.1748,0.6551,7.22
0.0172,2.0907,0.6346,6.8885
0.0177,1.9998,0.6182,6.4699
0.0182,1.9205,0.6188,5.9611
0.0188,1.8679,0.6356,5.4897
0.0194,1.8267,0.6465,5.1611
0.02,1.7752,0.6333,4.9764
0.0206,1.718,0.6016,4.906
0.0212,1.6775,0.5708,4.9299
0.0219,1.6574,0.5512,4.9838
0.0225,1.6417,0.5426,4.9676
0.0232,1.6182,0.5412,4.8386
0.0239,1.589,0.5424,4.6551
0.0247,1.5571,0.5412,4.4797
0.0254,1.5226,0.5377,4.3116
0.0262,1.4973,0.5383,4.1651
0.027,1.4926,0.5456,4.0832
0.0278,1.4982,0.5508,4.0753
0.0287,1.4888,0.5429,4.0826
0.0295,1.4563,0.5257,4.0345
0.0304,1.4253,0.5145,3.9482
0.0314,1.4222,0.5174,3.9089
0.0323,1.4476,0.5297,3.9561
0.0333,1.4798,0.541,4.0475
0.0343,1.502,0.5484,4.1139
0.0354,1.5093,0.5555,4.1007
0.0365,1.4968,0.5617,3.9881
0.0376,1.4611,0.5621,3.7981
0.0387,1.4174,0.5567,3.6089
0.0399,1.3929,0.5507,3.5231
0.0411,1.3975,0.5501,3.5506
0.0424,1.4144,0.5548,3.6058
0.0437,1.4183,0.5574,3.6088
0.045,1.4007,0.5502,3.5662
0.0464,1.3704,0.5304,3.5403
0.0478,1.3393,0.5042,3.5572
0.0493,1.3144,0.4838,3.5706
0.0508,1.2966,0.4794,3.5069
0.0523,1.2895,0.491,3.3869
0.0539,1.2998,0.5106,3.3086
0.0556,1.3291,0.5351,3.3015
0.0573,1.3746,0.5664,3.3357
0.059,1.431,0.6043,3.3886
0.0608,1.4885,0.6446,3.4376
0.0627,1.5393,0.6842,3.4634
0.0646,1.583,0.7222,3.4698
0.0666,1.6201,0.7572,3.4664
0.0686,1.6493,0.7854,3.4637
0.0707,1.6675,0.7997,3.477
0.0729,1.667,0.7955,3.4931
0.0751,1.6457,0.7808,3.4687
0.0774,1.6083,0.7663,3.3758
0.0798,1.5561,0.754,3.2115
0.0822,1.4942,0.7441,3.0001
0.0847,1.4346,0.7427,2.7712
0.0873,1.3883,0.7577,2.5438
0.09,1.3607,0.7906,2.3422
0.0927,1.3473,0.8293,2.1891
0.0956,1.336,0.8592,2.0773
0.0985,1.318,0.8759,1.9833
0.1015,1.2891,0.8806,1.8871
0.1046,1.2519,0.8761,1.7887
0.1078,1.2225,0.8683,1.7211
0.1111,1.2195,0.867,1.7153
0.1145,1.24,0.8792,1.7488
0.118,1.2512,0.8971,1.745
0.1216,1.2284,0.9046,1.6682
0.1253,1.1862,0.9056,1.5537
0.1292,1.1483,0.916,1.4396
0.1331,1.1244,0.9384,1.3471
0.1372,1.1133,0.9649,1.2846
0.1414,1.1127,0.987,1.2543
0.1457,1.12,1.0043,1.2491
0.1501,1.1318,1.0213,1.2542
0.1547,1.146,1.0401,1.2626
0.1595,1.1682,1.0639,1.2828
0.1643,1.2064,1.0974,1.3262
0.1694,1.2552,1.1419,1.3797
0.1745,1.2906,1.1765,1.4158
0.1799,1.2911,1.176,1.4173
0.1854,1.2678,1.1563,1.39
0.191,1.2509,1.147,1.3642
0.1969,1.255,1.1582,1.3599
0.2029,1.2789,1.1866,1.3784
0.2091,1.3172,1.2246,1.4169
0.2155,1.3651,1.2712,1.4659
0.2221,1.417,1.3267,1.5134
0.2289,1.4658,1.3771,1.5601
0.2359,1.5045,1.4052,1.6109
0.2431,1.5332,1.4216,1.6536
0.2505,1.5626,1.447,1.6876
0.2582,1.6068,1.4896,1.7332
0.266,1.671,1.5479,1.8039
0.2742,1.7459,1.6158,1.8864
0.2826,1.8118,1.6846,1.9486
0.2912,1.8566,1.729,1.9935
0.3001,1.8863,1.7478,2.0357
0.3093,1.919,1.7771,2.0721
0.3187,1.9696,1.8317,2.1179
0.3285,2.038,1.9038,2.1817
0.3385,2.1068,1.97,2.253
0.3489,2.1498,2.0088,2.3008
0.3595,2.1542,2.0186,2.2989
0.3705,2.1383,2.0073,2.278
0.3818,2.1379,1.9992,2.2862
0.3935,2.1744,2.0273,2.3322
0.4055,2.2381,2.0925,2.3939
0.4179,2.2957,2.162,2.4376
0.4307,2.3158,2.1935,2.4449
0.4439,2.2892,2.1699,2.4151
0.4574,2.2257,2.1126,2.3448
0.4714,2.1405,2.0378,2.2484
0.4858,2.0495,1.9463,2.1581
0.5007,1.9687,1.8573,2.0867
0.516,1.9066,1.7958,2.0242
0.5317,1.8585,1.758,1.9648
0.548,1.813,1.7224,1.9082
0.5647,1.7653,1.6815,1.8532
0.582,1.7199,1.6418,1.8016
0.5998,1.6829,1.6075,1.7618
0.6181,1.6589,1.584,1.7374
0.637,1.6531,1.5777,1.732
0.6565,1.672,1.5919,1.7561
0.6766,1.7201,1.6299,1.8154
0.6972,1.7929,1.6872,1.9053
0.7185,1.8742,1.7513,2.0056
0.7405,1.9448,1.8096,2.09
0.7631,1.9958,1.8539,2.1485
0.7865,2.028,1.8844,2.1826
0.8105,2.0401,1.9011,2.1893
0.8353,2.0295,1.8936,2.1752
0.8608,2.0073,1.8621,2.1638
0.8871,1.998,1.8345,2.176
0.9142,2.0184,1.833,2.2226
0.9422,2.0643,1.8517,2.3014
0.971,2.1167,1.8695,2.3967
1.0007,2.1566,1.8683,2.4895
1.0313,2.1745,1.8431,2.5655
1.0628,2.1708,1.8031,2.6135
1.0953,2.1525,1.7624,2.6288
1.1287,2.1267,1.7256,2.621
1.1632,2.095,1.6889,2.5987
1.1988,2.0607,1.6569,2.563
1.2354,2.038,1.6462,2.5229
1.2732,2.0387,1.6643,2.4973
1.3121,2.0557,1.6898,2.5009
1.3522,2.0698,1.6929,2.5306
1.3935,2.0731,1.6747,2.5663
1.4361,2.0758,1.6619,2.5927
1.48,2.0929,1.6714,2.6206
1.5253,2.1301,1.6927,2.6805
1.5719,2.1765,1.7039,2.7802
1.6199,2.2089,1.6953,2.878
1.6695,2.2071,1.6679,2.9206
1.7205,2.1708,1.6288,2.8931
1.7731,2.1188,1.5879,2.827
1.8273,2.0725,1.5519,2.7677
1.8831,2.0418,1.5222,2.7389
1.9407,2.0233,1.4981,2.7326
2.0,2.0042,1.4767,2.7202
