# hvsrpy output version 0.5.2
# File Name (),NA
# Method (),geometric-mean
# Azimuth (),0
# Window Length (s),1200.0
# Total Number of Windows (),72
# Frequency Domain Window Rejection Performed (),True
# Lower frequency limit for peaks (Hz),0.1
# Upper frequency limit for peaks (Hz),10.0
# Number of Standard Deviations Used for Rejection () [n],2
# Number of Accepted Windows (),62
# Number of Rejected Windows (),10
# Distribution of f0 (),lognormal
# Median f0 (Hz) [LMf0],6.613
# Lognormal standard deviation f0 () [SigmaLNf0],0.0902
# 68 % Confidence Interval f0 (Hz),6.0429,to,7.2369
# Median T0 (s) [LMT0],0.1512
# Lognormal standard deviation T0 () [SigmaLNT0],0.0902
# 68 % Confidence Interval T0 (s),0.1382,to,0.1655
# Median Curve Distribution (),lognormal
# Median Curve Peak Frequency (Hz) [f0mc],6.3596
# Median Curve Peak Amplitude (),4.2955
# Frequency (Hz),Median Curve,1 STD Below Median Curve,1 STD Above Median Curve
0.05,1.0128,0.7217,1.4212
0.0513,0.9837,0.7039,1.3748
0.0527,0.9669,0.699,1.3376
0.0542,0.9664,0.7059,1.323
0.0556,0.9752,0.7134,1.3332
0.0571,0.9845,0.715,1.3556
0.0587,0.9925,0.715,1.3775
0.0602,1.0035,0.7175,1.4034
0.0619,1.0196,0.7162,1.4515
0.0635,1.0345,0.7068,1.5142
0.0653,1.0365,0.6934,1.5493
0.067,1.0212,0.6792,1.5354
0.0688,0.9977,0.6665,1.4935
0.0707,0.9801,0.6615,1.4521
0.0726,0.9774,0.6661,1.4342
0.0745,0.9892,0.6765,1.4465
0.0766,1.0088,0.6915,1.4717
0.0786,1.0317,0.7108,1.4975
0.0807,1.0596,0.7315,1.5347
0.0829,1.0934,0.751,1.5918
0.0852,1.1274,0.7685,1.654
0.0875,1.1522,0.7823,1.6968
0.0898,1.1629,0.7941,1.7028
0.0922,1.1626,0.8075,1.6738
0.0947,1.16,0.8221,1.6366
0.0973,1.1633,0.8367,1.6173
0.0999,1.174,0.8529,1.6159
0.1026,1.1855,0.8694,1.6163
0.1054,1.189,0.8816,1.6036
0.1082,1.1799,0.8874,1.5688
0.1111,1.1584,0.8878,1.5114
0.1141,1.1274,0.8829,1.4396
0.1172,1.091,0.8717,1.3656
0.1204,1.0553,0.8544,1.3035
0.1236,1.0278,0.8355,1.2644
0.127,1.0131,0.8244,1.245
0.1304,1.009,0.8269,1.2313
0.1339,1.0092,0.8385,1.2147
0.1375,1.0094,0.8505,1.198
0.1412,1.011,0.8607,1.1875
0.145,1.0168,0.8746,1.1821
0.149,1.0237,0.8921,1.1747
0.153,1.0242,0.8996,1.166
0.1571,1.0129,0.8886,1.1546
0.1613,0.9918,0.8714,1.1289
0.1657,0.9682,0.8561,1.095
0.1702,0.9482,0.8397,1.0708
0.1748,0.9343,0.8223,1.0617
0.1795,0.9265,0.8111,1.0583
0.1843,0.9242,0.8134,1.0501
0.1893,0.9282,0.8305,1.0375
0.1944,0.941,0.8573,1.0327
0.1996,0.9635,0.8872,1.0464
0.205,0.9934,0.9146,1.079
0.2106,1.0255,0.9378,1.1213
0.2162,1.0554,0.9602,1.16
0.2221,1.0816,0.9824,1.1907
0.2281,1.1046,1.0006,1.2193
0.2342,1.1233,1.0153,1.2428
0.2405,1.1334,1.0291,1.2482
0.247,1.1308,1.0369,1.2333
0.2537,1.1173,1.0313,1.2105
0.2605,1.099,1.0134,1.1918
0.2676,1.0815,0.9936,1.1771
0.2748,1.0675,0.979,1.164
0.2822,1.0585,0.9699,1.1553
0.2898,1.0566,0.9662,1.1554
0.2976,1.0622,0.9688,1.1645
0.3057,1.0709,0.9748,1.1763
0.3139,1.0753,0.9791,1.181
0.3224,1.0734,0.9802,1.1756
0.3311,1.0709,0.9826,1.167
0.34,1.0736,0.9906,1.1636
0.3492,1.0809,1.0002,1.1682
0.3586,1.0868,1.0036,1.177
0.3683,1.0878,0.9998,1.1834
0.3782,1.0863,0.9948,1.1863
0.3884,1.0875,0.9946,1.1892
0.3989,1.093,1.0013,1.1931
0.4097,1.099,1.0109,1.1948
0.4207,1.0999,1.0158,1.191
0.4321,1.0931,1.0116,1.1812
0.4437,1.0802,0.9997,1.1672
0.4557,1.0647,0.9832,1.153
0.468,1.0493,0.9652,1.1407
0.4806,1.0358,0.9516,1.1275
0.4936,1.0258,0.9473,1.1109
0.5069,1.0214,0.9504,1.0977
0.5206,1.0242,0.9571,1.096
0.5347,1.0341,0.9677,1.105
0.5491,1.0473,0.9821,1.1169
0.5639,1.0576,0.9954,1.1237
0.5791,1.0592,1.0007,1.1212
0.5947,1.0509,0.9936,1.1115
0.6108,1.0366,0.9784,1.0983
0.6273,1.0228,0.9642,1.085
0.6442,1.0145,0.9567,1.0757
0.6616,1.0122,0.9565,1.0711
0.6794,1.013,0.9594,1.0697
0.6978,1.0132,0.961,1.0681
0.7166,1.0102,0.9596,1.0636
0.7359,1.0042,0.9532,1.0578
0.7558,0.9965,0.9425,1.0535
0.7762,0.9904,0.9336,1.0506
0.7971,0.9899,0.9301,1.0537
0.8186,0.997,0.9284,1.0706
0.8407,1.0083,0.9257,1.0983
0.8634,1.0184,0.9235,1.123
0.8867,1.0242,0.9241,1.1351
0.9106,1.0279,0.9296,1.1366
0.9352,1.0338,0.9384,1.1389
0.9604,1.043,0.9464,1.1494
0.9863,1.0512,0.9517,1.1611
1.0129,1.0536,0.9533,1.1645
1.0403,1.0505,0.9486,1.1633
1.0683,1.045,0.9373,1.1652
1.0972,1.0389,0.9231,1.1693
1.1268,1.0307,0.9078,1.1703
1.1572,1.0196,0.8918,1.1657
1.1884,1.0085,0.878,1.1583
1.2205,1.0021,0.8695,1.155
1.2534,1.003,0.867,1.1603
1.2872,1.0099,0.8684,1.1744
1.3219,1.0197,0.8703,1.1947
1.3576,1.0297,0.8721,1.2158
1.3942,1.0381,0.8741,1.2327
1.4319,1.0442,0.8768,1.2436
1.4705,1.0482,0.8797,1.249
1.5102,1.0498,0.881,1.2509
1.5509,1.0481,0.8766,1.2531
1.5928,1.0436,0.8646,1.2597
1.6358,1.0388,0.8485,1.2718
1.6799,1.0381,0.8348,1.2909
1.7252,1.0467,0.8294,1.321
1.7718,1.067,0.8335,1.366
1.8196,1.0968,0.8441,1.425
1.8687,1.1298,0.8587,1.4865
1.9191,1.1587,0.8754,1.5337
1.9709,1.1768,0.8889,1.5578
2.0241,1.1822,0.8941,1.5632
2.0787,1.1804,0.8906,1.5645
2.1348,1.1802,0.8859,1.5721
2.1924,1.1881,0.8897,1.5866
2.2515,1.2056,0.9043,1.6072
2.3123,1.2286,0.9254,1.6313
2.3747,1.2522,0.9466,1.6564
2.4387,1.2742,0.9655,1.6814
2.5045,1.2966,0.9875,1.7025
2.5721,1.3235,1.0195,1.7182
2.6415,1.3579,1.0623,1.7358
2.7128,1.4,1.1107,1.7647
2.786,1.4467,1.1574,1.8083
2.8612,1.4945,1.1959,1.8676
2.9384,1.5396,1.2226,1.9388
3.0176,1.5771,1.2395,2.0065
3.0991,1.6031,1.244,2.0659
3.1827,1.6178,1.227,2.1332
3.2686,1.6252,1.1916,2.2167
3.3567,1.6304,1.1531,2.3051
3.4473,1.6368,1.1252,2.3809
3.5403,1.6471,1.1126,2.4384
3.6359,1.6647,1.1136,2.4885
3.734,1.693,1.1247,2.5485
3.8347,1.7338,1.1423,2.6318
3.9382,1.7874,1.1637,2.7455
4.0444,1.851,1.1892,2.8812
4.1536,1.9181,1.2205,3.0145
4.2656,1.9865,1.2623,3.1262
4.3807,2.0658,1.3251,3.2207
4.4989,2.1727,1.4206,3.3229
4.6203,2.3139,1.55,3.4542
4.745,2.4714,1.6907,3.6124
4.873,2.6109,1.8038,3.7791
5.0045,2.7159,1.8755,3.9329
5.1396,2.808,1.9353,4.0742
5.2782,2.9305,2.0234,4.2442
5.4207,3.1161,2.157,4.5017
5.5669,3.3657,2.3253,4.8715
5.7171,3.6501,2.51,5.308
5.8714,3.924,2.6902,5.7235
6.0298,4.1406,2.8416,6.0334
6.1925,4.2666,2.952,6.1665
6.3596,4.2955,3.0249,6.0997
6.5312,4.2527,3.0742,5.883
6.7074,4.1851,3.1216,5.6108
6.8884,4.1365,3.1836,5.3746
7.0743,4.1254,3.2559,5.2271
7.2651,4.1422,3.3192,5.1693
7.4612,4.1643,3.3578,5.1644
7.6625,4.1662,3.3572,5.1701
7.8692,4.1162,3.2988,5.1361
8.0816,3.9774,3.1728,4.986
8.2996,3.7393,2.9893,4.6775
8.5236,3.4423,2.7778,4.2656
8.7536,3.1468,2.571,3.8516
8.9898,2.8924,2.3884,3.5026
9.2323,2.6885,2.2333,3.2365
9.4814,2.529,2.1007,3.0447
9.7373,2.4047,1.9869,2.9105
10.0,2.308,1.8913,2.8164
