# hvsrpy output version 0.5.2
# File Name (),NA
# Method (),geometric-mean
# Azimuth (),0
# Window Length (s),1200.0
# Total Number of Windows (),72
# Frequency Domain Window Rejection Performed (),True
# Lower frequency limit for peaks (Hz),0.1
# Upper frequency limit for peaks (Hz),5.0
# Number of Standard Deviations Used for Rejection () [n],2
# Number of Accepted Windows (),57
# Number of Rejected Windows (),15
# Distribution of f0 (),lognormal
# Median f0 (Hz) [LMf0],1.2392
# Lognormal standard deviation f0 () [SigmaLNf0],0.1553
# 68 % Confidence Interval f0 (Hz),1.0609,to,1.4473
# Median T0 (s) [LMT0],0.807
# Lognormal standard deviation T0 () [SigmaLNT0],0.1553
# 68 % Confidence Interval T0 (s),0.6909,to,0.9426
# Median Curve Distribution (),lognormal
# Median Curve Peak Frequency (Hz) [f0mc],1.3063
# Median Curve Peak Amplitude (),2.364
# Frequency (Hz),Median Curve,1 STD Below Median Curve,1 STD Above Median Curve
0.05,1.9764,1.3321,2.9324
0.0512,2.144,1.4939,3.0771
0.0524,2.3218,1.6538,3.2596
0.0536,2.4865,1.7755,3.4824
0.0548,2.6109,1.8595,3.6657
0.0561,2.6855,1.9204,3.7555
0.0574,2.7231,1.9679,3.768
0.0588,2.7423,2.0119,3.738
0.0602,2.7541,2.0471,3.7053
0.0616,2.7551,2.0546,3.6944
0.063,2.7372,2.0286,3.6933
0.0645,2.6988,1.9844,3.6704
0.066,2.647,1.9404,3.6108
0.0675,2.5887,1.9045,3.5188
0.0691,2.5219,1.8723,3.397
0.0707,2.4379,1.8316,3.245
0.0724,2.3319,1.7734,3.0663
0.0741,2.2091,1.6983,2.8734
0.0758,2.0796,1.615,2.6777
0.0776,1.9539,1.5329,2.4906
0.0794,1.8423,1.4554,2.332
0.0813,1.7477,1.3825,2.2094
0.0832,1.6644,1.3165,2.1042
0.0851,1.5853,1.2595,1.9953
0.0871,1.5094,1.2092,1.8841
0.0892,1.44,1.1631,1.7828
0.0913,1.38,1.1241,1.6941
0.0934,1.3301,1.0967,1.6131
0.0956,1.2889,1.0805,1.5375
0.0978,1.254,1.0696,1.4702
0.1001,1.223,1.0579,1.4139
0.1025,1.1943,1.0412,1.37
0.1049,1.1674,1.0174,1.3395
0.1073,1.1432,0.9908,1.3191
0.1098,1.125,0.9702,1.3045
0.1124,1.1157,0.9605,1.2961
0.115,1.1158,0.96,1.2969
0.1177,1.1231,0.9644,1.308
0.1205,1.1345,0.9715,1.3249
0.1233,1.1468,0.9819,1.3394
0.1262,1.1597,0.9983,1.3471
0.1291,1.1769,1.0226,1.3545
0.1322,1.2034,1.0534,1.3748
0.1352,1.2414,1.0887,1.4155
0.1384,1.2871,1.1281,1.4684
0.1417,1.331,1.169,1.5155
0.145,1.3628,1.2035,1.5431
0.1484,1.3778,1.2244,1.5503
0.1518,1.3807,1.2354,1.543
0.1554,1.381,1.2461,1.5306
0.159,1.3857,1.2585,1.5258
0.1628,1.3959,1.2687,1.5358
0.1666,1.4069,1.2752,1.5523
0.1705,1.4124,1.2764,1.5628
0.1745,1.4085,1.2687,1.5636
0.1785,1.3972,1.253,1.5581
0.1827,1.3837,1.2357,1.5494
0.187,1.3712,1.2223,1.5383
0.1914,1.3599,1.2123,1.5255
0.1959,1.3494,1.2029,1.5138
0.2004,1.3414,1.1956,1.5049
0.2051,1.3382,1.1951,1.4983
0.2099,1.3405,1.2039,1.4927
0.2149,1.3469,1.2178,1.4898
0.2199,1.3553,1.231,1.4921
0.225,1.364,1.2429,1.4969
0.2303,1.3719,1.2557,1.4988
0.2357,1.3774,1.2663,1.4981
0.2412,1.379,1.2697,1.4976
0.2469,1.3769,1.2676,1.4957
0.2526,1.374,1.2656,1.4917
0.2585,1.3755,1.2691,1.4909
0.2646,1.3868,1.2809,1.5013
0.2708,1.4115,1.3029,1.5291
0.2771,1.4505,1.3375,1.5731
0.2836,1.5006,1.3859,1.6249
0.2903,1.5552,1.4425,1.6767
0.2971,1.6073,1.4945,1.7285
0.304,1.6532,1.5327,1.7832
0.3111,1.6931,1.5621,1.8351
0.3184,1.7282,1.5924,1.8756
0.3259,1.7566,1.6239,1.9001
0.3335,1.7727,1.648,1.9069
0.3413,1.7724,1.6565,1.8964
0.3493,1.7582,1.6492,1.8744
0.3575,1.7403,1.6336,1.8541
0.3658,1.7302,1.6204,1.8473
0.3744,1.7336,1.6177,1.8578
0.3832,1.7482,1.6266,1.879
0.3921,1.766,1.6417,1.8998
0.4013,1.7803,1.6561,1.9138
0.4107,1.7909,1.6665,1.9244
0.4203,1.8018,1.6749,1.9383
0.4302,1.8149,1.6854,1.9544
0.4402,1.8268,1.6986,1.9647
0.4506,1.8323,1.7099,1.9635
0.4611,1.8285,1.7133,1.9514
0.4719,1.8169,1.7082,1.9325
0.4829,1.8032,1.7002,1.9125
0.4942,1.7952,1.6969,1.8993
0.5058,1.7986,1.7027,1.8998
0.5177,1.8129,1.718,1.9131
0.5298,1.8322,1.7373,1.9323
0.5422,1.8484,1.7507,1.9515
0.5549,1.8568,1.7531,1.9667
0.5679,1.8583,1.7484,1.9751
0.5812,1.8575,1.7428,1.9798
0.5948,1.86,1.7411,1.987
0.6087,1.8689,1.7473,1.9989
0.6229,1.8854,1.764,2.0152
0.6375,1.9092,1.7897,2.0367
0.6525,1.9374,1.8189,2.0636
0.6677,1.9634,1.8436,2.0911
0.6834,1.9797,1.8559,2.1118
0.6994,1.984,1.855,2.1219
0.7157,1.9831,1.853,2.1224
0.7325,1.9887,1.8636,2.1221
0.7496,2.0073,1.8892,2.1329
0.7672,2.0356,1.9195,2.1587
0.7851,2.0626,1.9431,2.1895
0.8035,2.0795,1.9562,2.2106
0.8223,2.0871,1.9623,2.2198
0.8416,2.0944,1.9681,2.2288
0.8613,2.1111,1.9803,2.2506
0.8815,2.1404,2.0042,2.2859
0.9021,2.1775,2.0396,2.3248
0.9232,2.2123,2.079,2.3541
0.9448,2.2337,2.1101,2.3646
0.9669,2.2349,2.1184,2.3577
0.9896,2.2165,2.1023,2.337
1.0128,2.1883,2.0782,2.3043
1.0365,2.1643,2.0601,2.2737
1.0607,2.1557,2.0553,2.2609
1.0856,2.1661,2.0681,2.2687
1.111,2.1912,2.0945,2.2922
1.137,2.2224,2.1226,2.3268
1.1636,2.2533,2.1445,2.3677
1.1908,2.2825,2.1609,2.4109
1.2187,2.3106,2.175,2.4546
1.2473,2.3365,2.1833,2.5005
1.2765,2.3559,2.1765,2.5501
1.3063,2.364,2.1561,2.592
1.3369,2.3583,2.1363,2.6033
1.3682,2.3387,2.1292,2.5689
1.4003,2.3076,2.1312,2.4985
1.433,2.2699,2.1233,2.4267
1.4666,2.2333,2.0933,2.3826
1.5009,2.2038,2.056,2.3622
1.5361,2.1813,2.0249,2.3498
1.572,2.157,1.9942,2.3331
1.6088,2.1186,1.9495,2.3024
1.6465,2.0612,1.8849,2.254
1.685,1.9925,1.8078,2.196
1.7245,1.9273,1.7325,2.1441
1.7649,1.8786,1.6711,2.1118
1.8062,1.8516,1.6303,2.1028
1.8485,1.8444,1.6113,2.1112
1.8917,1.8517,1.6126,2.1263
1.936,1.868,1.6284,2.143
1.9813,1.8881,1.6461,2.1656
2.0277,1.9068,1.6562,2.1954
2.0752,1.9194,1.6574,2.2228
2.1238,1.9213,1.6493,2.2381
2.1735,1.9097,1.6286,2.2394
2.2244,1.8859,1.5961,2.2283
2.2765,1.8548,1.5596,2.2059
2.3298,1.8231,1.5274,2.176
2.3843,1.7954,1.504,2.1433
2.4401,1.7708,1.4865,2.1096
2.4973,1.7417,1.4636,2.0727
2.5557,1.7002,1.4255,2.0278
2.6155,1.6453,1.3723,1.9726
2.6768,1.585,1.3141,1.9119
2.7395,1.5318,1.2636,1.857
2.8036,1.4947,1.2277,1.8198
2.8692,1.4755,1.2057,1.8055
2.9364,1.4698,1.1935,1.8099
3.0051,1.4704,1.1877,1.8205
3.0755,1.4703,1.1854,1.8236
3.1475,1.4642,1.1832,1.8118
3.2212,1.4496,1.1778,1.7841
3.2966,1.4268,1.167,1.7445
3.3738,1.3988,1.1504,1.7009
3.4528,1.3701,1.1296,1.6617
3.5336,1.3452,1.1087,1.6322
3.6163,1.3268,1.0915,1.6127
3.701,1.314,1.0795,1.5993
3.7876,1.3038,1.0703,1.5884
3.8763,1.2936,1.0601,1.5786
3.967,1.2828,1.0478,1.5705
4.0599,1.2731,1.035,1.5659
4.155,1.2665,1.0236,1.567
4.2522,1.2643,1.0146,1.5753
4.3518,1.2665,1.0086,1.5904
4.4537,1.2724,1.006,1.6092
4.5579,1.2805,1.0072,1.628
4.6647,1.2895,1.0121,1.643
4.7739,1.2982,1.0201,1.6521
4.8856,1.3055,1.0297,1.6551
5.0,1.3111,1.0388,1.6547
