# hvsrpy output version 0.5.2
# File Name (),NA
# Method (),geometric-mean
# Azimuth (),0
# Window Length (s),1200.0
# Total Number of Windows (),72
# Frequency Domain Window Rejection Performed (),True
# Lower frequency limit for peaks (Hz),0.1
# Upper frequency limit for peaks (Hz),5.0
# Number of Standard Deviations Used for Rejection () [n],2
# Number of Accepted Windows (),57
# Number of Rejected Windows (),15
# Distribution of f0 (),lognormal
# Median f0 (Hz) [LMf0],1.3884
# Lognormal standard deviation f0 () [SigmaLNf0],0.094
# 68 % Confidence Interval f0 (Hz),1.2638,to,1.5251
# Median T0 (s) [LMT0],0.7203
# Lognormal standard deviation T0 () [SigmaLNT0],0.094
# 68 % Confidence Interval T0 (s),0.6557,to,0.7912
# Median Curve Distribution (),lognormal
# Median Curve Peak Frequency (Hz) [f0mc],1.3369
# Median Curve Peak Amplitude (),2.6483
# Frequency (Hz),Median Curve,1 STD Below Median Curve,1 STD Above Median Curve
0.05,1.8474,1.3082,2.6087
0.0512,1.9566,1.3912,2.7517
0.0524,2.1045,1.4955,2.9614
0.0536,2.2719,1.6088,3.2081
0.0548,2.4227,1.6981,3.4565
0.0561,2.5181,1.7372,3.6501
0.0574,2.5447,1.7282,3.7471
0.0588,2.518,1.6936,3.7435
0.0602,2.462,1.6533,3.6663
0.0616,2.3953,1.6154,3.5518
0.063,2.3307,1.5861,3.4249
0.0645,2.2774,1.5672,3.3095
0.066,2.2376,1.5546,3.2205
0.0675,2.2049,1.5423,3.1522
0.0691,2.1675,1.5246,3.0816
0.0707,2.113,1.5001,2.9763
0.0724,2.0349,1.4682,2.8204
0.0741,1.9364,1.4193,2.6417
0.0758,1.8289,1.3462,2.4847
0.0776,1.7267,1.2651,2.3569
0.0794,1.6386,1.1995,2.2385
0.0813,1.566,1.1564,2.1207
0.0832,1.5055,1.1282,2.0092
0.0851,1.4521,1.1032,1.9112
0.0871,1.4005,1.0748,1.825
0.0892,1.3451,1.0426,1.7354
0.0913,1.2811,1.0103,1.6244
0.0934,1.2107,0.9801,1.4956
0.0956,1.1437,0.95,1.3768
0.0978,1.0905,0.9219,1.2899
0.1001,1.0574,0.9042,1.2366
0.1025,1.0459,0.9023,1.2125
0.1049,1.0524,0.9126,1.2136
0.1073,1.0681,0.9295,1.2274
0.1098,1.0829,0.9465,1.2389
0.1124,1.0899,0.9549,1.244
0.115,1.09,0.9547,1.2446
0.1177,1.0895,0.9564,1.2411
0.1205,1.0937,0.9682,1.2354
0.1233,1.1029,0.9878,1.2313
0.1262,1.114,1.0063,1.2331
0.1291,1.1252,1.0195,1.2418
0.1322,1.1378,1.0309,1.2557
0.1352,1.1539,1.0455,1.2735
0.1384,1.1739,1.0651,1.294
0.1417,1.1973,1.088,1.3176
0.145,1.2238,1.1124,1.3462
0.1484,1.2536,1.139,1.3797
0.1518,1.2865,1.1694,1.4154
0.1554,1.3205,1.2023,1.4502
0.159,1.3504,1.2324,1.4797
0.1628,1.3699,1.2507,1.5004
0.1666,1.3743,1.2481,1.5132
0.1705,1.3634,1.2255,1.5168
0.1745,1.3404,1.1951,1.5033
0.1785,1.3096,1.1678,1.4687
0.1827,1.2761,1.1472,1.4195
0.187,1.2454,1.1319,1.3704
0.1914,1.2221,1.1189,1.3349
0.1959,1.2077,1.1058,1.319
0.2004,1.201,1.0948,1.3174
0.2051,1.2006,1.0911,1.3212
0.2099,1.2069,1.0966,1.3284
0.2149,1.2196,1.1095,1.3406
0.2199,1.2364,1.1269,1.3567
0.225,1.2539,1.1442,1.3742
0.2303,1.2686,1.1569,1.3911
0.2357,1.2787,1.1641,1.4047
0.2412,1.2852,1.1696,1.4121
0.2469,1.2919,1.1793,1.4152
0.2526,1.3039,1.1949,1.4229
0.2585,1.3257,1.2169,1.4443
0.2646,1.3595,1.2488,1.48
0.2708,1.406,1.2937,1.528
0.2771,1.4634,1.3473,1.5894
0.2836,1.5268,1.4009,1.664
0.2903,1.5897,1.4507,1.742
0.2971,1.6451,1.4974,1.8073
0.304,1.6864,1.5408,1.8457
0.3111,1.7083,1.5759,1.8518
0.3184,1.709,1.5906,1.8362
0.3259,1.6919,1.5744,1.8182
0.3335,1.6652,1.5389,1.8018
0.3413,1.6391,1.5066,1.7832
0.3493,1.6215,1.488,1.7669
0.3575,1.6159,1.4839,1.7597
0.3658,1.6222,1.4933,1.7621
0.3744,1.638,1.5153,1.7707
0.3832,1.6597,1.5458,1.782
0.3921,1.6826,1.5764,1.796
0.4013,1.7022,1.5954,1.8161
0.4107,1.7157,1.598,1.842
0.4203,1.7228,1.5931,1.863
0.4302,1.7255,1.5913,1.871
0.4402,1.7261,1.5951,1.8678
0.4506,1.7253,1.6007,1.8597
0.4611,1.7227,1.6022,1.8523
0.4719,1.7179,1.5954,1.8498
0.4829,1.7128,1.5843,1.8517
0.4942,1.7121,1.5781,1.8575
0.5058,1.7208,1.5822,1.8714
0.5177,1.7398,1.5982,1.8939
0.5298,1.7643,1.6245,1.9162
0.5422,1.7871,1.6539,1.9311
0.5549,1.803,1.6759,1.9399
0.5679,1.8116,1.6861,1.9465
0.5812,1.8169,1.6916,1.9514
0.5948,1.8246,1.7012,1.9571
0.6087,1.8393,1.7165,1.9709
0.6229,1.8625,1.736,1.9982
0.6375,1.8933,1.7607,2.0358
0.6525,1.9279,1.7888,2.0778
0.6677,1.9599,1.8133,2.1183
0.6834,1.9819,1.8297,2.1469
0.6994,1.9915,1.8389,2.1567
0.7157,1.9942,1.8466,2.1536
0.7325,2.0004,1.8592,2.1523
0.7496,2.0165,1.8761,2.1675
0.7672,2.0413,1.8937,2.2004
0.7851,2.0674,1.9129,2.2344
0.8035,2.0887,1.9357,2.2537
0.8223,2.1059,1.9637,2.2584
0.8416,2.1256,1.9974,2.2621
0.8613,2.1541,2.0333,2.282
0.8815,2.1917,2.0661,2.325
0.9021,2.2331,2.0987,2.376
0.9232,2.2693,2.1348,2.4122
0.9448,2.2922,2.1629,2.4293
0.9669,2.2983,2.1656,2.4392
0.9896,2.2905,2.1488,2.4415
1.0128,2.2774,2.1325,2.4322
1.0365,2.2705,2.1257,2.4251
1.0607,2.2794,2.1273,2.4424
1.0856,2.3066,2.1376,2.489
1.111,2.3467,2.1551,2.5553
1.137,2.3923,2.1763,2.6296
1.1636,2.4405,2.2033,2.7031
1.1908,2.4917,2.2401,2.7716
1.2187,2.5439,2.284,2.8334
1.2473,2.5903,2.3215,2.8902
1.2765,2.6244,2.3373,2.9467
1.3063,2.6433,2.3299,2.9989
1.3369,2.6483,2.3139,3.031
1.3682,2.6436,2.3024,3.0354
1.4003,2.6347,2.2957,3.0238
1.433,2.6255,2.2853,3.0163
1.4666,2.6174,2.2642,3.0256
1.5009,2.6086,2.2297,3.0519
1.5361,2.5921,2.1782,3.0847
1.572,2.5572,2.1085,3.1014
1.6088,2.4963,2.0244,3.0783
1.6465,2.4144,1.9327,3.0161
1.685,2.327,1.8414,2.9406
1.7245,2.2501,1.7616,2.8741
1.7649,2.1921,1.7052,2.8181
1.8062,2.1526,1.6767,2.7637
1.8485,2.1252,1.6662,2.7105
1.8917,2.1009,1.6567,2.6642
1.936,2.0714,1.6386,2.6187
1.9813,2.0326,1.6151,2.5581
2.0277,1.9869,1.5907,2.4818
2.0752,1.9404,1.5667,2.4033
2.1238,1.8965,1.5445,2.3287
2.1735,1.8546,1.5232,2.258
2.2244,1.8124,1.4981,2.1925
2.2765,1.769,1.4657,2.1351
2.3298,1.7258,1.4268,2.0874
2.3843,1.6844,1.3852,2.0482
2.4401,1.645,1.3447,2.0123
2.4973,1.6056,1.3078,1.9712
2.5557,1.5637,1.2761,1.9162
2.6155,1.5189,1.2497,1.8461
2.6768,1.473,1.226,1.7698
2.7395,1.4293,1.2027,1.6987
2.8036,1.3912,1.1807,1.6391
2.8692,1.3608,1.1613,1.5944
2.9364,1.3383,1.1434,1.5664
3.0051,1.3211,1.125,1.5515
3.0755,1.3046,1.1042,1.5414
3.1475,1.2839,1.0793,1.5273
3.2212,1.2569,1.0493,1.5056
3.2966,1.2254,1.0148,1.4797
3.3738,1.1939,0.9794,1.4553
3.4528,1.1664,0.9485,1.4344
3.5336,1.1449,0.925,1.4171
3.6163,1.1289,0.908,1.4035
3.701,1.1165,0.8943,1.394
3.7876,1.1061,0.8811,1.3887
3.8763,1.0969,0.8676,1.3868
3.967,1.0888,0.855,1.3867
4.0599,1.0819,0.8456,1.3843
4.155,1.0756,0.8411,1.3754
4.2522,1.0688,0.8412,1.3581
4.3518,1.0608,0.8429,1.3351
4.4537,1.0514,0.842,1.3128
4.5579,1.0409,0.8358,1.2964
4.6647,1.0307,0.8262,1.2859
4.7739,1.0222,0.8171,1.2788
4.8856,1.0168,0.8118,1.2736
5.0,1.0155,0.8123,1.2696
