# hvsrpy output version 0.5.2
# File Name (),NA
# Method (),geometric-mean
# Azimuth (),0
# Window Length (s),1200.0
# Total Number of Windows (),72
# Frequency Domain Window Rejection Performed (),True
# Lower frequency limit for peaks (Hz),0.1
# Upper frequency limit for peaks (Hz),5.0
# Number of Standard Deviations Used for Rejection () [n],2
# Number of Accepted Windows (),68
# Number of Rejected Windows (),4
# Distribution of f0 (),lognormal
# Median f0 (Hz) [LMf0],1.4199
# Lognormal standard deviation f0 () [SigmaLNf0],0.258
# 68 % Confidence Interval f0 (Hz),1.097,to,1.8379
# Median T0 (s) [LMT0],0.7043
# Lognormal standard deviation T0 () [SigmaLNT0],0.258
# 68 % Confidence Interval T0 (s),0.5441,to,0.9116
# Median Curve Distribution (),lognormal
# Median Curve Peak Frequency (Hz) [f0mc],1.2765
# Median Curve Peak Amplitude (),2.4295
# Frequency (Hz),Median Curve,1 STD Below Median Curve,1 STD Above Median Curve
0.05,3.328,1.6074,6.8904
0.0512,3.5241,1.7115,7.2567
0.0524,3.6979,1.81,7.5551
0.0536,3.8419,1.8915,7.8037
0.0548,3.9507,1.9479,8.0128
0.0561,4.0207,1.9803,8.1636
0.0574,4.0583,1.994,8.2596
0.0588,4.073,1.9948,8.3164
0.0602,4.0648,1.9845,8.3258
0.0616,4.0249,1.9588,8.2702
0.063,3.9526,1.9186,8.1429
0.0645,3.862,1.8776,7.9438
0.066,3.7674,1.8498,7.6732
0.0675,3.6619,1.8327,7.3166
0.0691,3.5134,1.8068,6.832
0.0707,3.2956,1.7548,6.1893
0.0724,3.0142,1.6698,5.4407
0.0741,2.7047,1.5559,4.7017
0.0758,2.4113,1.4311,4.0628
0.0776,2.1625,1.3186,3.5467
0.0794,1.9662,1.2313,3.1395
0.0813,1.8172,1.17,2.8222
0.0832,1.7046,1.1281,2.5758
0.0851,1.6159,1.0963,2.3818
0.0871,1.5404,1.0668,2.2243
0.0892,1.4719,1.0365,2.0903
0.0913,1.4097,1.008,1.9714
0.0934,1.356,0.9869,1.8632
0.0956,1.313,0.9771,1.7644
0.0978,1.2809,0.9799,1.6742
0.1001,1.2587,0.9923,1.5966
0.1025,1.2459,1.0065,1.5423
0.1049,1.2407,1.0172,1.5133
0.1073,1.2396,1.0263,1.4973
0.1098,1.2385,1.0349,1.4821
0.1124,1.2346,1.0414,1.4636
0.115,1.2287,1.0452,1.4445
0.1177,1.2248,1.0509,1.4275
0.1205,1.2262,1.0624,1.4154
0.1233,1.2329,1.0742,1.4151
0.1262,1.2419,1.0791,1.4292
0.1291,1.2508,1.0804,1.448
0.1322,1.2609,1.0882,1.4611
0.1352,1.2756,1.1086,1.4678
0.1384,1.2963,1.1385,1.4759
0.1417,1.3203,1.1686,1.4916
0.145,1.343,1.1927,1.5121
0.1484,1.3617,1.2113,1.5308
0.1518,1.3776,1.2274,1.5462
0.1554,1.392,1.2428,1.5591
0.159,1.4029,1.2555,1.5675
0.1628,1.4052,1.2602,1.5669
0.1666,1.3944,1.2517,1.5534
0.1705,1.3696,1.2297,1.5255
0.1745,1.3348,1.1992,1.4859
0.1785,1.297,1.1658,1.443
0.1827,1.2634,1.1344,1.407
0.187,1.2393,1.1109,1.3826
0.1914,1.2269,1.0995,1.3691
0.1959,1.2245,1.0985,1.3648
0.2004,1.2278,1.1045,1.3648
0.2051,1.2341,1.1174,1.363
0.2099,1.2441,1.1357,1.3629
0.2149,1.2593,1.154,1.3742
0.2199,1.2778,1.1685,1.3975
0.225,1.2949,1.1799,1.4212
0.2303,1.3059,1.1881,1.4355
0.2357,1.3098,1.1907,1.4407
0.2412,1.309,1.1902,1.4397
0.2469,1.3089,1.194,1.4348
0.2526,1.3151,1.2071,1.4327
0.2585,1.3324,1.2299,1.4435
0.2646,1.363,1.2607,1.4736
0.2708,1.406,1.2982,1.5228
0.2771,1.4587,1.3414,1.5862
0.2836,1.5173,1.3893,1.6571
0.2903,1.5785,1.4409,1.7293
0.2971,1.6394,1.4955,1.7972
0.304,1.6967,1.5512,1.8557
0.3111,1.7452,1.6013,1.9019
0.3184,1.7781,1.6351,1.9337
0.3259,1.7899,1.6465,1.9457
0.3335,1.7802,1.6395,1.9329
0.3413,1.7551,1.6219,1.8992
0.3493,1.7246,1.5993,1.8597
0.3575,1.6986,1.5759,1.8308
0.3658,1.6836,1.558,1.8192
0.3744,1.6809,1.5519,1.8207
0.3832,1.6882,1.5592,1.8279
0.3921,1.7018,1.5762,1.8373
0.4013,1.7202,1.5977,1.8521
0.4107,1.7435,1.6209,1.8754
0.4203,1.7695,1.6434,1.9053
0.4302,1.7925,1.6615,1.9338
0.4402,1.8056,1.6733,1.9484
0.4506,1.8048,1.6783,1.9409
0.4611,1.7913,1.6759,1.9147
0.4719,1.7713,1.6655,1.8838
0.4829,1.7536,1.6508,1.8629
0.4942,1.7468,1.6401,1.8604
0.5058,1.7548,1.6407,1.8768
0.5177,1.7749,1.6554,1.903
0.5298,1.7992,1.6811,1.9256
0.5422,1.8196,1.7079,1.9387
0.5549,1.8331,1.7263,1.9464
0.5679,1.8418,1.7363,1.9538
0.5812,1.8514,1.7457,1.9634
0.5948,1.8668,1.7605,1.9796
0.6087,1.8911,1.7841,2.0046
0.6229,1.9247,1.8181,2.0377
0.6375,1.9653,1.8586,2.0782
0.6525,2.0066,1.8975,2.1221
0.6677,2.0388,1.9282,2.1557
0.6834,2.0531,1.9443,2.168
0.6994,2.05,1.9394,2.1669
0.7157,2.0406,1.9199,2.1688
0.7325,2.0393,1.9073,2.1803
0.7496,2.0536,1.9161,2.201
0.7672,2.0802,1.943,2.2272
0.7851,2.1087,1.9747,2.2518
0.8035,2.1306,2.0004,2.2692
0.8223,2.1454,2.0159,2.2833
0.8416,2.1593,2.0262,2.3011
0.8613,2.1775,2.0412,2.3228
0.8815,2.2005,2.063,2.3471
0.9021,2.2239,2.0826,2.3747
0.9232,2.2414,2.0895,2.4044
0.9448,2.2478,2.0796,2.4297
0.9669,2.241,2.0587,2.4394
0.9896,2.2249,2.0377,2.4294
1.0128,2.2083,2.0211,2.4129
1.0365,2.1994,2.0097,2.4071
1.0607,2.2024,2.01,2.4132
1.0856,2.2173,2.0225,2.431
1.111,2.2426,2.0367,2.4693
1.137,2.2767,2.0535,2.5243
1.1636,2.3185,2.0854,2.5775
1.1908,2.3635,2.1311,2.6211
1.2187,2.4029,2.1675,2.6639
1.2473,2.4268,2.1739,2.7091
1.2765,2.4295,2.1582,2.735
1.3063,2.4134,2.143,2.7178
1.3369,2.3858,2.1412,2.6583
1.3682,2.3543,2.1462,2.5826
1.4003,2.3236,2.1404,2.5225
1.433,2.2954,2.1169,2.4888
1.4666,2.2703,2.0839,2.4733
1.5009,2.2484,2.0418,2.476
1.5361,2.2285,1.9875,2.4988
1.572,2.2088,1.936,2.5201
1.6088,2.189,1.906,2.5141
1.6465,2.1704,1.8943,2.4868
1.685,2.1553,1.8758,2.4766
1.7245,2.1462,1.8367,2.5077
1.7649,2.1426,1.7937,2.5594
1.8062,2.141,1.7681,2.5927
1.8485,2.1363,1.7658,2.5844
1.8917,2.1246,1.7769,2.5403
1.936,2.1062,1.7844,2.4861
1.9813,2.0857,1.778,2.4467
2.0277,2.0692,1.7611,2.4313
2.0752,2.0585,1.739,2.4368
2.1238,2.0474,1.7076,2.4549
2.1735,2.0262,1.663,2.4689
2.2244,1.9893,1.61,2.4578
2.2765,1.9387,1.5574,2.4134
2.3298,1.8815,1.5114,2.3422
2.3843,1.8234,1.4743,2.2551
2.4401,1.767,1.4436,2.1628
2.4973,1.713,1.4137,2.0758
2.5557,1.6614,1.378,2.0032
2.6155,1.6119,1.3328,1.9493
2.6768,1.5645,1.2804,1.9116
2.7395,1.5206,1.2274,1.8838
2.8036,1.4817,1.1795,1.8613
2.8692,1.4475,1.1377,1.8417
2.9364,1.4147,1.0993,1.8206
3.0051,1.3781,1.0605,1.7909
3.0755,1.334,1.0192,1.746
3.1475,1.2824,0.9766,1.6838
3.2212,1.2267,0.9347,1.61
3.2966,1.1722,0.8954,1.5347
3.3738,1.1237,0.8608,1.4669
3.4528,1.0837,0.8323,1.4109
3.5336,1.0528,0.8102,1.368
3.6163,1.0302,0.7936,1.3374
3.701,1.0144,0.7815,1.3169
3.7876,1.0036,0.7734,1.3023
3.8763,0.9961,0.7689,1.2904
3.967,0.9907,0.7666,1.2804
4.0599,0.9865,0.7652,1.2719
4.155,0.9834,0.7653,1.2638
4.2522,0.9818,0.7679,1.2554
4.3518,0.9828,0.7733,1.249
4.4537,0.9869,0.7807,1.2475
4.5579,0.9936,0.7891,1.2512
4.6647,1.0014,0.7977,1.257
4.7739,1.0082,0.8059,1.2613
4.8856,1.0131,0.8129,1.2626
5.0,1.0162,0.8185,1.2615
