# hvsrpy output version 0.5.2
# File Name (),NA
# Method (),geometric-mean
# Azimuth (),0
# Window Length (s),1200.0
# Total Number of Windows (),72
# Frequency Domain Window Rejection Performed (),True
# Lower frequency limit for peaks (Hz),0.1
# Upper frequency limit for peaks (Hz),5.0
# Number of Standard Deviations Used for Rejection () [n],2
# Number of Accepted Windows (),71
# Number of Rejected Windows (),1
# Distribution of f0 (),lognormal
# Median f0 (Hz) [LMf0],1.1052
# Lognormal standard deviation f0 () [SigmaLNf0],0.2349
# 68 % Confidence Interval f0 (Hz),0.8738,to,1.3978
# Median T0 (s) [LMT0],0.9048
# Lognormal standard deviation T0 () [SigmaLNT0],0.2349
# 68 % Confidence Interval T0 (s),0.7154,to,1.1444
# Median Curve Distribution (),lognormal
# Median Curve Peak Frequency (Hz) [f0mc],1.2765
# Median Curve Peak Amplitude (),2.3148
# Frequency (Hz),Median Curve,1 STD Below Median Curve,1 STD Above Median Curve
0.05,1.3671,0.8159,2.2907
0.0512,1.412,0.8748,2.2792
0.0524,1.479,0.9528,2.2958
0.0536,1.5734,1.0403,2.3795
0.0548,1.687,1.1293,2.5201
0.0561,1.7991,1.2179,2.6577
0.0574,1.8924,1.3042,2.7457
0.0588,1.9652,1.3832,2.7921
0.0602,2.0245,1.4527,2.8215
0.0616,2.0757,1.5102,2.8529
0.063,2.1185,1.5491,2.8972
0.0645,2.1491,1.5655,2.9503
0.066,2.1589,1.5669,2.9748
0.0675,2.1335,1.5574,2.9227
0.0691,2.0602,1.5261,2.781
0.0707,1.9378,1.4616,2.5691
0.0724,1.7831,1.3704,2.3199
0.0741,1.6252,1.2737,2.0737
0.0758,1.4911,1.1901,1.8682
0.0776,1.3933,1.1237,1.7276
0.0794,1.3292,1.0691,1.6526
0.0813,1.288,1.0236,1.6207
0.0832,1.2572,0.9876,1.6004
0.0851,1.2273,0.9608,1.5678
0.0871,1.1931,0.9418,1.5113
0.0892,1.1532,0.9263,1.4357
0.0913,1.1103,0.9078,1.358
0.0934,1.0701,0.8835,1.2962
0.0956,1.0396,0.8573,1.2607
0.0978,1.0244,0.8396,1.25
0.1001,1.0269,0.8404,1.2548
0.1025,1.0445,0.864,1.2628
0.1049,1.0699,0.9042,1.2661
0.1073,1.0922,0.9423,1.2659
0.1098,1.1024,0.9608,1.2648
0.1124,1.0989,0.9592,1.2589
0.115,1.087,0.9486,1.2457
0.1177,1.0737,0.9398,1.2267
0.1205,1.0628,0.9387,1.2033
0.1233,1.055,0.9414,1.1823
0.1262,1.0506,0.9399,1.1744
0.1291,1.0517,0.9344,1.1837
0.1322,1.061,0.9331,1.2065
0.1352,1.0804,0.9448,1.2354
0.1384,1.1088,0.9726,1.264
0.1417,1.1431,1.0117,1.2917
0.145,1.1788,1.053,1.3196
0.1484,1.2107,1.0897,1.3453
0.1518,1.2359,1.1181,1.3662
0.1554,1.2548,1.1368,1.385
0.159,1.2699,1.1472,1.4058
0.1628,1.2835,1.1549,1.4263
0.1666,1.2945,1.164,1.4396
0.1705,1.2994,1.1713,1.4415
0.1745,1.2942,1.1684,1.4336
0.1785,1.2779,1.1519,1.4176
0.1827,1.2535,1.1281,1.3928
0.187,1.2277,1.1059,1.3629
0.1914,1.2089,1.0921,1.338
0.1959,1.2032,1.0895,1.3289
0.2004,1.212,1.0967,1.3394
0.2051,1.2304,1.1113,1.3624
0.2099,1.2508,1.1299,1.3846
0.2149,1.2666,1.1474,1.3982
0.2199,1.2758,1.1573,1.4064
0.225,1.28,1.1593,1.4133
0.2303,1.2821,1.1606,1.4163
0.2357,1.2844,1.1676,1.4129
0.2412,1.2876,1.178,1.4075
0.2469,1.2916,1.1846,1.4083
0.2526,1.2979,1.1879,1.4182
0.2585,1.3111,1.1971,1.436
0.2646,1.3372,1.2213,1.4641
0.2708,1.3803,1.2645,1.5068
0.2771,1.4405,1.3264,1.5645
0.2836,1.5132,1.403,1.6321
0.2903,1.5918,1.4868,1.7043
0.2971,1.6705,1.5668,1.7811
0.304,1.7437,1.6323,1.8627
0.3111,1.8039,1.6782,1.9391
0.3184,1.8419,1.7031,1.9919
0.3259,1.8506,1.7061,2.0074
0.3335,1.8312,1.6866,1.9881
0.3413,1.7932,1.6502,1.9486
0.3493,1.7499,1.6093,1.9028
0.3575,1.7133,1.5782,1.8601
0.3658,1.6919,1.5658,1.8282
0.3744,1.6893,1.5726,1.8147
0.3832,1.7046,1.592,1.8251
0.3921,1.7329,1.6155,1.8588
0.4013,1.768,1.639,1.9071
0.4107,1.8049,1.6644,1.9572
0.4203,1.8401,1.6951,1.9976
0.4302,1.8704,1.7279,2.0245
0.4402,1.8898,1.7517,2.0387
0.4506,1.8924,1.7574,2.0378
0.4611,1.8759,1.7439,2.0179
0.4719,1.8454,1.7175,1.9829
0.4829,1.8131,1.6896,1.9456
0.4942,1.793,1.6726,1.9222
0.5058,1.7942,1.6726,1.9245
0.5177,1.8158,1.6909,1.95
0.5298,1.8487,1.722,1.9847
0.5422,1.8804,1.7536,2.0163
0.5549,1.902,1.7748,2.0383
0.5679,1.9126,1.7855,2.0487
0.5812,1.9181,1.7942,2.0506
0.5948,1.9262,1.8089,2.0512
0.6087,1.9418,1.8321,2.0581
0.6229,1.966,1.8612,2.0767
0.6375,1.9974,1.8917,2.1091
0.6525,2.0334,1.9205,2.153
0.6677,2.0684,1.945,2.1995
0.6834,2.0947,1.9626,2.2357
0.6994,2.1082,1.9723,2.2536
0.7157,2.1131,1.9773,2.2583
0.7325,2.1192,1.9846,2.2628
0.7496,2.1332,1.9992,2.2762
0.7672,2.1533,2.0173,2.2986
0.7851,2.1715,2.0283,2.3248
0.8035,2.1823,2.0268,2.3497
0.8223,2.1877,2.0219,2.3671
0.8416,2.1942,2.029,2.3729
0.8613,2.2062,2.0536,2.3702
0.8815,2.2235,2.0876,2.3683
0.9021,2.2424,2.1182,2.374
0.9232,2.2585,2.1401,2.3834
0.9448,2.2668,2.1525,2.3871
0.9669,2.2626,2.1493,2.3818
0.9896,2.244,2.1228,2.3722
1.0128,2.2157,2.0788,2.3616
1.0365,2.1874,2.0366,2.3494
1.0607,2.1679,2.0142,2.3333
1.0856,2.1605,2.0169,2.3142
1.111,2.1637,2.0354,2.3
1.137,2.1759,2.0593,2.2991
1.1636,2.198,2.0825,2.3198
1.1908,2.2301,2.097,2.3716
1.2187,2.2675,2.106,2.4415
1.2473,2.2994,2.1142,2.5007
1.2765,2.3148,2.1167,2.5315
1.3063,2.3114,2.1097,2.5324
1.3369,2.296,2.0962,2.5148
1.3682,2.2779,2.074,2.5018
1.4003,2.2617,2.0343,2.5145
1.433,2.2457,1.9772,2.5507
1.4666,2.2262,1.9106,2.5938
1.5009,2.1995,1.8373,2.6332
1.5361,2.1625,1.7576,2.6606
1.572,2.1114,1.6764,2.6594
1.6088,2.0452,1.6009,2.6128
1.6465,1.9684,1.5352,2.5238
1.685,1.8904,1.4786,2.4168
1.7245,1.8208,1.429,2.3201
1.7649,1.7657,1.3856,2.2501
1.8062,1.7272,1.35,2.2099
1.8485,1.704,1.3246,2.1921
1.8917,1.691,1.3089,2.1847
1.936,1.6812,1.2987,2.1763
1.9813,1.6697,1.291,2.1595
2.0277,1.6546,1.285,2.1306
2.0752,1.6357,1.2818,2.0874
2.1238,1.6126,1.2818,2.0288
2.1735,1.5857,1.2829,1.96
2.2244,1.5574,1.2816,1.8925
2.2765,1.5311,1.2769,1.8359
2.3298,1.5094,1.2701,1.7939
2.3843,1.4917,1.2604,1.7654
2.4401,1.4735,1.243,1.7467
2.4973,1.4504,1.2142,1.7326
2.5557,1.4218,1.1756,1.7195
2.6155,1.3916,1.1348,1.7066
2.6768,1.3657,1.1005,1.6948
2.7395,1.3477,1.0781,1.6847
2.8036,1.3376,1.0682,1.675
2.8692,1.3324,1.0669,1.6638
2.9364,1.3278,1.0689,1.6495
3.0051,1.3209,1.0701,1.6305
3.0755,1.3101,1.0697,1.6044
3.1475,1.2955,1.0684,1.5708
3.2212,1.278,1.0656,1.5327
3.2966,1.259,1.0596,1.4959
3.3738,1.2406,1.0496,1.4664
3.4528,1.2252,1.0371,1.4473
3.5336,1.2139,1.0242,1.4388
3.6163,1.2067,1.0116,1.4394
3.701,1.2022,0.9991,1.4465
3.7876,1.1989,0.9871,1.4561
3.8763,1.1954,0.9762,1.4638
3.967,1.1911,0.9667,1.4677
4.0599,1.1863,0.9585,1.4681
4.155,1.1818,0.9521,1.467
4.2522,1.1793,0.9481,1.4668
4.3518,1.1796,0.9465,1.4702
4.4537,1.1828,0.9463,1.4784
4.5579,1.1872,0.9461,1.4898
4.6647,1.191,0.9452,1.5007
4.7739,1.1932,0.9438,1.5085
4.8856,1.194,0.9425,1.5126
5.0,1.1948,0.9428,1.5141
