# hvsrpy output version 0.5.2
# File Name (),NA
# Method (),geometric-mean
# Azimuth (),0
# Window Length (s),1200.0
# Total Number of Windows (),72
# Frequency Domain Window Rejection Performed (),True
# Lower frequency limit for peaks (Hz),0.1
# Upper frequency limit for peaks (Hz),5.0
# Number of Standard Deviations Used for Rejection () [n],2
# Number of Accepted Windows (),72
# Number of Rejected Windows (),0
# Distribution of f0 (),lognormal
# Median f0 (Hz) [LMf0],0.8268
# Lognormal standard deviation f0 () [SigmaLNf0],0.691
# 68 % Confidence Interval f0 (Hz),0.4143,to,1.6501
# Median T0 (s) [LMT0],1.2094
# Lognormal standard deviation T0 () [SigmaLNT0],0.691
# 68 % Confidence Interval T0 (s),0.606,to,2.4136
# Median Curve Distribution (),lognormal
# Median Curve Peak Frequency (Hz) [f0mc],0.4302
# Median Curve Peak Amplitude (),2.3122
# Frequency (Hz),Median Curve,1 STD Below Median Curve,1 STD Above Median Curve
0.05,1.4331,1.0096,2.0343
0.0512,1.4635,1.0567,2.027
0.0524,1.5146,1.1124,2.0624
0.0536,1.5801,1.1764,2.1224
0.0548,1.6456,1.2483,2.1694
0.0561,1.7011,1.3154,2.1999
0.0574,1.7438,1.358,2.2392
0.0588,1.7761,1.3825,2.2817
0.0602,1.803,1.4152,2.2971
0.0616,1.8285,1.4665,2.2797
0.063,1.8534,1.5147,2.2679
0.0645,1.8771,1.5297,2.3035
0.066,1.898,1.5209,2.3686
0.0675,1.9136,1.5149,2.4172
0.0691,1.9197,1.5179,2.428
0.0707,1.9091,1.5184,2.4004
0.0724,1.8765,1.5042,2.341
0.0741,1.8241,1.4696,2.2642
0.0758,1.7603,1.4186,2.1844
0.0776,1.6924,1.3605,2.1053
0.0794,1.6231,1.3038,2.0206
0.0813,1.5525,1.2533,1.9232
0.0832,1.4832,1.2093,1.8193
0.0851,1.4214,1.1693,1.7279
0.0871,1.3722,1.1338,1.6608
0.0892,1.3365,1.109,1.6106
0.0913,1.3095,1.0976,1.5623
0.0934,1.285,1.0929,1.5109
0.0956,1.26,1.084,1.4647
0.0978,1.2357,1.0659,1.4325
0.1001,1.2145,1.0424,1.415
0.1025,1.1977,1.0222,1.4033
0.1049,1.185,1.0122,1.3872
0.1073,1.1756,1.0117,1.366
0.1098,1.1688,1.0146,1.3464
0.1124,1.1643,1.0169,1.3331
0.115,1.1606,1.0191,1.3217
0.1177,1.1544,1.0224,1.3034
0.1205,1.1439,1.0222,1.28
0.1233,1.1302,1.0108,1.2637
0.1262,1.1157,0.99,1.2574
0.1291,1.1021,0.9708,1.2511
0.1322,1.0894,0.9574,1.2396
0.1352,1.0782,0.9466,1.228
0.1384,1.0696,0.9362,1.2219
0.1417,1.0654,0.9298,1.2208
0.145,1.0667,0.9319,1.2211
0.1484,1.0728,0.944,1.2192
0.1518,1.081,0.9621,1.2147
0.1554,1.0896,0.9794,1.2122
0.159,1.0988,0.9918,1.2174
0.1628,1.1099,1.0013,1.2302
0.1666,1.1226,1.0115,1.2457
0.1705,1.135,1.0221,1.2605
0.1745,1.1457,1.0331,1.2705
0.1785,1.1554,1.0494,1.2721
0.1827,1.1686,1.0725,1.2734
0.187,1.1905,1.0974,1.2915
0.1914,1.223,1.124,1.3307
0.1959,1.2631,1.1567,1.3793
0.2004,1.3046,1.1924,1.4274
0.2051,1.3425,1.2251,1.471
0.2099,1.3752,1.2538,1.5085
0.2149,1.4052,1.2825,1.5395
0.2199,1.4351,1.3137,1.5676
0.225,1.4654,1.3447,1.5969
0.2303,1.4943,1.3717,1.6278
0.2357,1.52,1.3932,1.6584
0.2412,1.5437,1.4094,1.6908
0.2469,1.5693,1.4234,1.7303
0.2526,1.6022,1.4443,1.7774
0.2585,1.6465,1.4824,1.8288
0.2646,1.7031,1.5396,1.884
0.2708,1.7681,1.6076,1.9445
0.2771,1.8322,1.673,2.0066
0.2836,1.8845,1.7241,2.0598
0.2903,1.9174,1.756,2.0935
0.2971,1.9321,1.7724,2.1062
0.304,1.939,1.784,2.1074
0.3111,1.9498,1.8011,2.1107
0.3184,1.9701,1.8256,2.1261
0.3259,1.9973,1.8521,2.1539
0.3335,2.0241,1.878,2.1815
0.3413,2.0447,1.9038,2.196
0.3493,2.0587,1.9241,2.2027
0.3575,2.07,1.9326,2.2171
0.3658,2.0828,1.9367,2.24
0.3744,2.1002,1.9487,2.2634
0.3832,2.1247,1.9726,2.2885
0.3921,2.1589,2.0069,2.3225
0.4013,2.2027,2.0485,2.3684
0.4107,2.2502,2.0899,2.4227
0.4203,2.2904,2.1192,2.4754
0.4302,2.3122,2.13,2.5099
0.4402,2.3105,2.1259,2.5112
0.4506,2.2869,2.1122,2.476
0.4611,2.2444,2.0875,2.4131
0.4719,2.1852,2.0449,2.3352
0.4829,2.1121,1.9844,2.2481
0.4942,2.0329,1.917,2.1557
0.5058,1.9592,1.8524,2.0721
0.5177,1.9012,1.7946,2.0142
0.5298,1.8618,1.7467,1.9846
0.5422,1.8356,1.7095,1.9709
0.5549,1.8129,1.6791,1.9574
0.5679,1.7862,1.651,1.9325
0.5812,1.7532,1.6244,1.8922
0.5948,1.7164,1.5994,1.8419
0.6087,1.6802,1.5759,1.7915
0.6229,1.6493,1.5554,1.7489
0.6375,1.6282,1.5411,1.7202
0.6525,1.6219,1.5375,1.7109
0.6677,1.6353,1.5503,1.7248
0.6834,1.6705,1.5829,1.7629
0.6994,1.7245,1.6327,1.8214
0.7157,1.7891,1.6927,1.8911
0.7325,1.8549,1.7537,1.962
0.7496,1.9149,1.8086,2.0275
0.7672,1.965,1.8538,2.083
0.7851,2.0017,1.8857,2.1248
0.8035,2.0195,1.8994,2.1472
0.8223,2.0147,1.8928,2.1445
0.8416,1.9912,1.8693,2.1209
0.8613,1.962,1.8397,2.0924
0.8815,1.9447,1.8208,2.077
0.9021,1.9527,1.8274,2.0865
0.9232,1.9899,1.8637,2.1245
0.9448,2.0497,1.9217,2.1862
0.9669,2.118,1.9872,2.2574
0.9896,2.1791,2.0474,2.3194
1.0128,2.222,2.0925,2.3595
1.0365,2.242,2.1155,2.376
1.0607,2.2408,2.1155,2.3736
1.0856,2.224,2.0979,2.3576
1.111,2.1964,2.0673,2.3336
1.137,2.1588,2.0223,2.3046
1.1636,2.1087,1.9603,2.2683
1.1908,2.0463,1.8847,2.2217
1.2187,1.9796,1.8079,2.1676
1.2473,1.922,1.7455,2.1163
1.2765,1.8847,1.706,2.0822
1.3063,1.8714,1.6867,2.0764
1.3369,1.879,1.6818,2.0992
1.3682,1.9018,1.6894,2.1409
1.4003,1.935,1.7079,2.1923
1.433,1.9741,1.7328,2.2489
1.4666,2.0143,1.7597,2.3056
1.5009,2.0515,1.7865,2.3558
1.5361,2.0838,1.8133,2.3945
1.572,2.1106,1.8397,2.4214
1.6088,2.1311,1.8612,2.4401
1.6465,2.1428,1.8723,2.4523
1.685,2.1436,1.8712,2.4556
1.7245,2.1364,1.8612,2.4524
1.7649,2.1296,1.8488,2.4531
1.8062,2.1303,1.8404,2.4658
1.8485,2.1378,1.8378,2.4867
1.8917,2.1438,1.8371,2.5016
1.936,2.1393,1.8314,2.4989
1.9813,2.1208,1.8184,2.4734
2.0277,2.0909,1.8013,2.4271
2.0752,2.0558,1.7794,2.3751
2.1238,2.0217,1.7478,2.3386
2.1735,1.9934,1.7086,2.3257
2.2244,1.9729,1.6736,2.3256
2.2765,1.9584,1.6517,2.322
2.3298,1.9456,1.6415,2.3059
2.3843,1.9296,1.6341,2.2785
2.4401,1.9069,1.6206,2.2438
2.4973,1.8755,1.5971,2.2025
2.5557,1.8343,1.5634,2.1521
2.6155,1.7833,1.5205,2.0914
2.6768,1.7245,1.4693,2.0241
2.7395,1.6622,1.4119,1.9569
2.8036,1.6005,1.3525,1.8939
2.8692,1.5422,1.2963,1.8348
2.9364,1.488,1.2454,1.7778
3.0051,1.4358,1.1975,1.7214
3.0755,1.3828,1.149,1.6641
3.1475,1.3285,1.0976,1.6079
3.2212,1.2762,1.0446,1.5591
3.2966,1.2314,0.9961,1.5222
3.3738,1.1978,0.9588,1.4963
3.4528,1.1757,0.9361,1.4766
3.5336,1.1618,0.9258,1.4579
3.6163,1.151,0.9209,1.4385
3.701,1.1398,0.914,1.4215
3.7876,1.1282,0.9019,1.4113
3.8763,1.1192,0.8886,1.4097
3.967,1.1164,0.881,1.4146
4.0599,1.1217,0.8836,1.4239
4.155,1.1355,0.8964,1.4386
4.2522,1.158,0.9174,1.4617
4.3518,1.1901,0.9456,1.4978
4.4537,1.2322,0.9801,1.5491
4.5579,1.2811,1.02,1.6089
4.6647,1.3282,1.0623,1.6606
4.7739,1.3618,1.1008,1.6848
4.8856,1.3733,1.1285,1.6713
5.0,1.3629,1.1423,1.6262
