# hvsrpy output version 0.5.2
# File Name (),NA
# Method (),geometric-mean
# Azimuth (),0
# Window Length (s),3600.0
# Total Number of Windows (),24
# Frequency Domain Window Rejection Performed (),True
# Lower frequency limit for peaks (Hz),0.006
# Upper frequency limit for peaks (Hz),9.9
# Number of Standard Deviations Used for Rejection () [n],2
# Number of Accepted Windows (),24
# Number of Rejected Windows (),0
# Distribution of f0 (),lognormal
# Median f0 (Hz) [LMf0],0.49
# Lognormal standard deviation f0 () [SigmaLNf0],2.2534
# 68 % Confidence Interval f0 (Hz),0.0515,to,4.665
# Median T0 (s) [LMT0],2.0406
# Lognormal standard deviation T0 () [SigmaLNT0],2.2534
# 68 % Confidence Interval T0 (s),0.2144,to,19.4264
# Median Curve Distribution (),lognormal
# Median Curve Peak Frequency (Hz) [f0mc],0.973
# Median Curve Peak Amplitude (),1.8475
# Frequency (Hz),Median Curve,1 STD Below Median Curve,1 STD Above Median Curve
0.005,1.5721,0.3071,8.0466
0.0052,1.5614,0.3035,8.0336
0.0054,1.5347,0.2954,7.9739
0.0056,1.5177,0.287,8.0255
0.0058,1.5358,0.2918,8.082
0.0061,1.5434,0.3149,7.5657
0.0063,1.5354,0.342,6.8935
0.0065,1.5527,0.3681,6.5497
0.0068,1.6033,0.3945,6.5155
0.0071,1.6638,0.4201,6.5903
0.0073,1.7059,0.4493,6.4769
0.0076,1.6911,0.4535,6.3055
0.0079,1.6202,0.4269,6.1498
0.0082,1.5235,0.3955,5.8683
0.0085,1.3979,0.361,5.4135
0.0089,1.2708,0.3199,5.0479
0.0092,1.1987,0.2948,4.8738
0.0096,1.2025,0.2956,4.8929
0.0099,1.221,0.3032,4.9176
0.0103,1.2119,0.3077,4.7723
0.0107,1.191,0.3135,4.5243
0.0112,1.195,0.321,4.4486
0.0116,1.2162,0.3274,4.518
0.012,1.2105,0.3253,4.5047
0.0125,1.1792,0.3202,4.342
0.013,1.1415,0.3141,4.1485
0.0135,1.1011,0.3004,4.0363
0.014,1.0651,0.288,3.9396
0.0146,1.0475,0.2854,3.8443
0.0151,1.038,0.2842,3.7907
0.0157,1.0177,0.2768,3.7417
0.0163,0.9967,0.2701,3.6772
0.017,0.9946,0.2692,3.6748
0.0176,1.0243,0.2779,3.7761
0.0183,1.062,0.2928,3.8529
0.019,1.0548,0.2941,3.7832
0.0198,1.0104,0.2779,3.6732
0.0205,0.9907,0.2672,3.6726
0.0213,1.0145,0.2738,3.7584
0.0222,1.0466,0.2903,3.7739
0.023,1.0612,0.3098,3.6355
0.0239,1.0671,0.3274,3.4784
0.0249,1.0904,0.3465,3.4312
0.0258,1.1294,0.3707,3.4405
0.0268,1.1559,0.3883,3.4409
0.0279,1.1512,0.3839,3.4519
0.029,1.1232,0.3645,3.4616
0.0301,1.0844,0.3452,3.4068
0.0313,1.0389,0.3292,3.2792
0.0325,1.0107,0.3215,3.1775
0.0338,1.0114,0.3266,3.1317
0.0351,1.0172,0.3328,3.1091
0.0364,1.0029,0.3278,3.0683
0.0379,0.9694,0.3172,2.9628
0.0393,0.9401,0.3144,2.8104
0.0409,0.9296,0.3194,2.7053
0.0425,0.9335,0.3241,2.6885
0.0441,0.946,0.3284,2.7248
0.0458,0.9658,0.3378,2.7614
0.0476,0.9967,0.3572,2.7813
0.0495,1.0494,0.3836,2.8708
0.0514,1.1163,0.4042,3.0829
0.0534,1.1732,0.4145,3.3201
0.0555,1.2071,0.4246,3.4322
0.0576,1.2199,0.4358,3.4145
0.0599,1.2184,0.4438,3.3446
0.0622,1.2261,0.458,3.2825
0.0646,1.2579,0.4882,3.2415
0.0671,1.3003,0.5264,3.2122
0.0698,1.3376,0.5577,3.2083
0.0725,1.3814,0.5969,3.1967
0.0753,1.4454,0.6645,3.1438
0.0782,1.4865,0.7357,3.0033
0.0813,1.4466,0.7649,2.7355
0.0844,1.355,0.7473,2.4567
0.0877,1.2843,0.7224,2.2831
0.0911,1.2641,0.7191,2.2221
0.0947,1.2863,0.7409,2.2331
0.0984,1.3288,0.7701,2.2928
0.1022,1.3611,0.7818,2.3695
0.1062,1.3595,0.7843,2.3566
0.1103,1.3367,0.8113,2.2025
0.1146,1.298,0.8686,1.9397
0.1191,1.2345,0.9276,1.643
0.1237,1.1706,0.9736,1.4075
0.1285,1.1297,0.9998,1.2765
0.1335,1.1162,1.01,1.2336
0.1387,1.126,1.0307,1.2303
0.1441,1.1433,1.0555,1.2383
0.1497,1.1408,1.0497,1.2398
0.1556,1.1144,1.0166,1.2215
0.1616,1.0902,0.9958,1.1935
0.1679,1.0865,0.9976,1.1833
0.1744,1.0994,1.0089,1.1981
0.1812,1.118,1.0247,1.2199
0.1883,1.1313,1.0545,1.2137
0.1956,1.128,1.0734,1.1854
0.2032,1.1151,1.0592,1.1739
0.2112,1.1115,1.0519,1.1744
0.2194,1.1185,1.0569,1.1837
0.2279,1.1295,1.0622,1.201
0.2368,1.1528,1.0797,1.2308
0.246,1.1899,1.1115,1.2739
0.2556,1.2204,1.1463,1.2994
0.2655,1.243,1.1779,1.3117
0.2759,1.2897,1.2268,1.3558
0.2866,1.3756,1.307,1.4478
0.2978,1.472,1.3951,1.5532
0.3094,1.5462,1.466,1.6309
0.3214,1.593,1.5087,1.6821
0.3339,1.6237,1.534,1.7186
0.3469,1.655,1.5716,1.7428
0.3604,1.698,1.6214,1.7782
0.3745,1.742,1.6623,1.8255
0.3891,1.752,1.6716,1.8364
0.4042,1.716,1.6487,1.7859
0.4199,1.6806,1.6211,1.7424
0.4363,1.6832,1.6191,1.7499
0.4533,1.69,1.6196,1.7635
0.4709,1.6634,1.5905,1.7396
0.4893,1.6224,1.5493,1.699
0.5083,1.5908,1.5187,1.6664
0.5281,1.5687,1.4963,1.6446
0.5487,1.5575,1.4784,1.6408
0.57,1.5584,1.4681,1.6542
0.5922,1.5641,1.4703,1.6638
0.6153,1.5737,1.4675,1.6876
0.6392,1.5899,1.4574,1.7345
0.6641,1.6098,1.4346,1.8065
0.69,1.6265,1.4228,1.8594
0.7168,1.6365,1.4456,1.8526
0.7447,1.6449,1.4927,1.8126
0.7737,1.6493,1.528,1.7802
0.8039,1.6469,1.5185,1.7861
0.8352,1.6554,1.5085,1.8166
0.8677,1.7016,1.5593,1.857
0.9015,1.7767,1.5994,1.9737
0.9366,1.8362,1.6126,2.0908
0.973,1.8475,1.625,2.1006
1.0109,1.8125,1.62,2.0279
1.0503,1.7562,1.5924,1.9368
1.0912,1.6998,1.5478,1.8667
1.1336,1.6564,1.5095,1.8176
1.1778,1.6444,1.4897,1.8152
1.2236,1.672,1.4811,1.8875
1.2713,1.7133,1.4652,2.0035
1.3208,1.7233,1.4411,2.0608
1.3722,1.7032,1.4053,2.0643
1.4256,1.6845,1.355,2.0941
1.4811,1.6697,1.3254,2.1035
1.5388,1.6577,1.3247,2.0744
1.5987,1.6587,1.3402,2.0528
1.661,1.6724,1.3609,2.0551
1.7256,1.6804,1.3692,2.0623
1.7928,1.6664,1.3492,2.0582
1.8626,1.6393,1.3103,2.0509
1.9351,1.6196,1.279,2.0509
2.0105,1.6068,1.2425,2.0778
2.0888,1.5821,1.1982,2.089
2.1701,1.5427,1.1673,2.039
2.2546,1.5,1.1413,1.9712
2.3424,1.4529,1.092,1.933
2.4336,1.3949,1.0338,1.8821
2.5283,1.331,0.9908,1.7879
2.6267,1.2757,0.9659,1.6849
2.729,1.2329,0.955,1.5915
2.8353,1.1885,0.9425,1.4988
2.9456,1.1342,0.9053,1.4209
3.0603,1.0824,0.8523,1.3747
3.1795,1.0458,0.8077,1.3541
3.3033,1.0248,0.7845,1.3388
3.4319,1.0127,0.783,1.3097
3.5655,1.0031,0.7894,1.2748
3.7043,0.9976,0.7955,1.2511
3.8486,0.9977,0.8026,1.2404
3.9984,0.9971,0.8083,1.23
4.1541,0.9908,0.8044,1.2204
4.3158,0.9858,0.7943,1.2236
4.4838,0.9892,0.788,1.2419
4.6584,0.9922,0.7868,1.2512
4.8398,0.9869,0.7847,1.241
5.0282,0.9836,0.7776,1.2442
5.224,0.9916,0.7683,1.2796
5.4274,1.0062,0.7582,1.3354
5.6387,1.0244,0.7566,1.387
5.8582,1.0468,0.7733,1.417
6.0863,1.0671,0.796,1.4304
6.3233,1.0815,0.8069,1.4496
6.5695,1.0972,0.808,1.4899
6.8253,1.1147,0.806,1.5415
7.091,1.1297,0.8025,1.5904
7.3671,1.1508,0.8083,1.6384
7.6539,1.1901,0.8415,1.6831
7.9519,1.236,0.8916,1.7134
8.2615,1.2621,0.9157,1.7396
8.5832,1.2644,0.8978,1.7807
8.9173,1.2629,0.8769,1.8187
9.2645,1.2783,0.8797,1.8576
9.6252,1.3118,0.9019,1.9081
10.0,1.3515,0.9308,1.9623
