# hvsrpy output version 0.5.2
# File Name (),NA
# Method (),geometric-mean
# Azimuth (),0
# Window Length (s),1200.0
# Total Number of Windows (),72
# Frequency Domain Window Rejection Performed (),True
# Lower frequency limit for peaks (Hz),0.1
# Upper frequency limit for peaks (Hz),5.0
# Number of Standard Deviations Used for Rejection () [n],2
# Number of Accepted Windows (),44
# Number of Rejected Windows (),28
# Distribution of f0 (),lognormal
# Median f0 (Hz) [LMf0],0.4309
# Lognormal standard deviation f0 () [SigmaLNf0],0.0371
# 68 % Confidence Interval f0 (Hz),0.4151,to,0.4472
# Median T0 (s) [LMT0],2.321
# Lognormal standard deviation T0 () [SigmaLNT0],0.0371
# 68 % Confidence Interval T0 (s),2.2363,to,2.4088
# Median Curve Distribution (),lognormal
# Median Curve Peak Frequency (Hz) [f0mc],0.4302
# Median Curve Peak Amplitude (),2.4269
# Frequency (Hz),Median Curve,1 STD Below Median Curve,1 STD Above Median Curve
0.05,1.2969,0.8776,1.9163
0.0512,1.3705,0.9546,1.9676
0.0524,1.4547,1.0306,2.0532
0.0536,1.5372,1.0993,2.1495
0.0548,1.6043,1.157,2.2243
0.0561,1.6528,1.1999,2.2766
0.0574,1.6898,1.2336,2.3146
0.0588,1.72,1.2714,2.3271
0.0602,1.7407,1.3181,2.2988
0.0616,1.7486,1.3619,2.2451
0.063,1.7475,1.3822,2.2093
0.0645,1.7439,1.3758,2.2105
0.066,1.7389,1.3622,2.2197
0.0675,1.7281,1.3559,2.2024
0.0691,1.7079,1.3539,2.1546
0.0707,1.6765,1.3418,2.0947
0.0724,1.6322,1.3085,2.036
0.0741,1.5767,1.2591,1.9745
0.0758,1.5177,1.2123,1.9002
0.0776,1.464,1.177,1.821
0.0794,1.4169,1.147,1.7503
0.0813,1.3713,1.1164,1.6844
0.0832,1.3219,1.0843,1.6117
0.0851,1.2688,1.0569,1.5232
0.0871,1.2163,1.037,1.4266
0.0892,1.1667,1.0097,1.3482
0.0913,1.1186,0.9629,1.2995
0.0934,1.071,0.9104,1.2599
0.0956,1.0268,0.8682,1.2143
0.0978,0.9894,0.8385,1.1675
0.1001,0.9611,0.8167,1.131
0.1025,0.9428,0.8006,1.1102
0.1049,0.9347,0.7913,1.1042
0.1073,0.9364,0.7896,1.1105
0.1098,0.9467,0.7963,1.1256
0.1124,0.9642,0.8126,1.144
0.115,0.9868,0.8384,1.1614
0.1177,1.0118,0.8706,1.176
0.1205,1.0351,0.9011,1.189
0.1233,1.0522,0.92,1.2032
0.1262,1.061,0.927,1.2144
0.1291,1.0632,0.9281,1.2181
0.1322,1.0634,0.9263,1.2207
0.1352,1.0651,0.9263,1.2249
0.1384,1.0696,0.9351,1.2233
0.1417,1.0758,0.9544,1.2128
0.145,1.0834,0.9782,1.1998
0.1484,1.092,0.9977,1.1952
0.1518,1.1022,1.0068,1.2066
0.1554,1.1146,1.0088,1.2314
0.159,1.1304,1.0141,1.2602
0.1628,1.15,1.0286,1.2859
0.1666,1.1712,1.0481,1.3088
0.1705,1.1896,1.062,1.3326
0.1745,1.2013,1.0658,1.3541
0.1785,1.2066,1.0659,1.3659
0.1827,1.2109,1.0709,1.3692
0.187,1.221,1.0868,1.3716
0.1914,1.2405,1.1161,1.3787
0.1959,1.2689,1.1552,1.3938
0.2004,1.3031,1.1965,1.4192
0.2051,1.3394,1.2364,1.451
0.2099,1.3749,1.2718,1.4862
0.2149,1.4079,1.2954,1.53
0.2199,1.4387,1.3086,1.5817
0.225,1.4696,1.326,1.6286
0.2303,1.5032,1.3568,1.6653
0.2357,1.5401,1.3929,1.7028
0.2412,1.5769,1.4214,1.7495
0.2469,1.6095,1.444,1.7939
0.2526,1.6383,1.4702,1.8257
0.2585,1.6702,1.5051,1.8534
0.2646,1.7125,1.5491,1.8932
0.2708,1.7672,1.6006,1.9511
0.2771,1.8283,1.6574,2.0169
0.2836,1.8866,1.7169,2.0731
0.2903,1.9351,1.7744,2.1104
0.2971,1.9725,1.8199,2.138
0.304,2.0016,1.8475,2.1686
0.3111,2.0263,1.867,2.1991
0.3184,2.0494,1.8882,2.2244
0.3259,2.0714,1.9069,2.2501
0.3335,2.0896,1.9168,2.2778
0.3413,2.1003,1.9233,2.2936
0.3493,2.1029,1.9334,2.2872
0.3575,2.1008,1.9479,2.2657
0.3658,2.1014,1.965,2.2473
0.3744,2.114,1.9837,2.2529
0.3832,2.1469,2.0087,2.2947
0.3921,2.2027,2.0528,2.3635
0.4013,2.2748,2.1207,2.44
0.4107,2.3479,2.2002,2.5056
0.4203,2.4034,2.268,2.5469
0.4302,2.4269,2.2998,2.561
0.4402,2.4131,2.281,2.5527
0.4506,2.3649,2.2181,2.5215
0.4611,2.2891,2.1303,2.4597
0.4719,2.194,2.0348,2.3656
0.4829,2.0913,1.9438,2.2499
0.4942,1.9956,1.8659,2.1344
0.5058,1.9206,1.8053,2.0432
0.5177,1.8734,1.7625,1.9913
0.5298,1.8513,1.7363,1.9738
0.5422,1.8427,1.724,1.9695
0.5549,1.8331,1.7165,1.9576
0.5679,1.8129,1.6983,1.9352
0.5812,1.7816,1.6613,1.9106
0.5948,1.7448,1.6169,1.8827
0.6087,1.7097,1.5834,1.8462
0.6229,1.6826,1.569,1.8046
0.6375,1.668,1.5704,1.7716
0.6525,1.6684,1.5783,1.7636
0.6677,1.6851,1.589,1.7869
0.6834,1.7169,1.6096,1.8314
0.6994,1.7594,1.6446,1.8821
0.7157,1.8052,1.6877,1.931
0.7325,1.8487,1.7292,1.9765
0.7496,1.8886,1.7677,2.0177
0.7672,1.9262,1.8061,2.0542
0.7851,1.9603,1.8381,2.0906
0.8035,1.9842,1.8528,2.1249
0.8223,1.9895,1.8487,2.141
0.8416,1.9749,1.8336,2.127
0.8613,1.9498,1.8186,2.0906
0.8815,1.9291,1.8117,2.054
0.9021,1.9232,1.8131,2.04
0.9232,1.934,1.8179,2.0576
0.9448,1.9567,1.826,2.0967
0.9669,1.9844,1.8386,2.1419
0.9896,2.0115,1.8515,2.1854
1.0128,2.0316,1.8565,2.2232
1.0365,2.0361,1.8465,2.2452
1.0607,2.0171,1.8189,2.2368
1.0856,1.972,1.775,2.1908
1.111,1.9068,1.7188,2.1154
1.137,1.8328,1.6567,2.0276
1.1636,1.7615,1.5968,1.9433
1.1908,1.7031,1.5481,1.8737
1.2187,1.6657,1.5181,1.8277
1.2473,1.6541,1.5099,1.812
1.2765,1.6662,1.5202,1.8263
1.3063,1.6933,1.5416,1.86
1.3369,1.7233,1.5647,1.8979
1.3682,1.7486,1.584,1.9303
1.4003,1.7691,1.6002,1.9558
1.433,1.7896,1.6193,1.9778
1.4666,1.8149,1.6463,2.0008
1.5009,1.8468,1.681,2.0289
1.5361,1.8841,1.7205,2.0634
1.572,1.923,1.7605,2.1005
1.6088,1.9567,1.7953,2.1325
1.6465,1.9764,1.8169,2.1499
1.685,1.9754,1.8196,2.1445
1.7245,1.954,1.8049,2.1154
1.7649,1.9209,1.7803,2.0726
1.8062,1.8883,1.7532,2.0338
1.8485,1.8662,1.7291,2.0141
1.8917,1.8589,1.7145,2.0155
1.936,1.8639,1.7125,2.0286
1.9813,1.873,1.7187,2.0413
2.0277,1.8763,1.7222,2.0441
2.0752,1.866,1.7099,2.0363
2.1238,1.8403,1.6744,2.0227
2.1735,1.8045,1.6228,2.0064
2.2244,1.7676,1.5707,1.9892
2.2765,1.738,1.5304,1.9738
2.3298,1.7192,1.5062,1.9623
2.3843,1.7092,1.4952,1.9539
2.4401,1.7033,1.4915,1.9453
2.4973,1.6964,1.4892,1.9324
2.5557,1.6848,1.4841,1.9127
2.6155,1.6677,1.4752,1.8854
2.6768,1.6453,1.4637,1.8493
2.7395,1.6176,1.4503,1.8043
2.8036,1.5846,1.4331,1.7522
2.8692,1.5466,1.4089,1.6979
2.9364,1.5056,1.3765,1.647
3.0051,1.4648,1.3377,1.604
3.0755,1.4267,1.296,1.5705
3.1475,1.392,1.2542,1.5449
3.2212,1.3603,1.2147,1.5233
3.2966,1.3314,1.1796,1.5028
3.3738,1.3065,1.1505,1.4835
3.4528,1.2858,1.1273,1.4665
3.5336,1.2672,1.1062,1.4517
3.6163,1.2463,1.0812,1.4365
3.701,1.2188,1.0479,1.4176
3.7876,1.1843,1.0075,1.3921
3.8763,1.1461,0.9659,1.3601
3.967,1.1098,0.929,1.3257
4.0599,1.0798,0.9001,1.2954
4.155,1.0588,0.88,1.274
4.2522,1.0475,0.8679,1.2643
4.3518,1.0456,0.8625,1.2676
4.4537,1.0529,0.8635,1.2838
4.5579,1.0693,0.8723,1.3107
4.6647,1.0945,0.8908,1.3447
4.7739,1.1276,0.9202,1.3816
4.8856,1.167,0.96,1.4187
5.0,1.2117,1.0083,1.456
