# hvsrpy output version 0.5.2
# File Name (),NA
# Method (),geometric-mean
# Azimuth (),0
# Window Length (s),1200.0
# Total Number of Windows (),72
# Frequency Domain Window Rejection Performed (),True
# Lower frequency limit for peaks (Hz),0.1
# Upper frequency limit for peaks (Hz),5.0
# Number of Standard Deviations Used for Rejection () [n],2
# Number of Accepted Windows (),48
# Number of Rejected Windows (),24
# Distribution of f0 (),lognormal
# Median f0 (Hz) [LMf0],1.344
# Lognormal standard deviation f0 () [SigmaLNf0],0.0786
# 68 % Confidence Interval f0 (Hz),1.2424,to,1.454
# Median T0 (s) [LMT0],0.744
# Lognormal standard deviation T0 () [SigmaLNT0],0.0786
# 68 % Confidence Interval T0 (s),0.6878,to,0.8049
# Median Curve Distribution (),lognormal
# Median Curve Peak Frequency (Hz) [f0mc],1.3063
# Median Curve Peak Amplitude (),2.4615
# Frequency (Hz),Median Curve,1 STD Below Median Curve,1 STD Above Median Curve
0.05,2.3626,1.1622,4.8027
0.0512,2.4631,1.2236,4.9584
0.0524,2.5545,1.2834,5.0845
0.0536,2.6452,1.3588,5.1495
0.0548,2.7347,1.4557,5.1376
0.0561,2.8034,1.5551,5.0537
0.0574,2.8287,1.6267,4.9189
0.0588,2.8109,1.6589,4.7628
0.0602,2.7767,1.666,4.6278
0.0616,2.7605,1.6754,4.5485
0.063,2.7782,1.7084,4.518
0.0645,2.8152,1.7602,4.5026
0.066,2.8417,1.8036,4.4773
0.0675,2.8303,1.8126,4.4193
0.0691,2.7629,1.7796,4.2893
0.0707,2.6372,1.7098,4.0675
0.0724,2.4665,1.6101,3.7782
0.0741,2.2667,1.4882,3.4526
0.0758,2.0561,1.3552,3.1196
0.0776,1.8571,1.2284,2.8073
0.0794,1.687,1.1243,2.5314
0.0813,1.5495,1.0498,2.287
0.0832,1.4388,1.0022,2.0656
0.0851,1.3509,0.9735,1.8745
0.0871,1.2823,0.9546,1.7224
0.0892,1.2273,0.9385,1.605
0.0913,1.18,0.9214,1.5112
0.0934,1.1382,0.9044,1.4324
0.0956,1.1048,0.8925,1.3675
0.0978,1.0856,0.8909,1.3229
0.1001,1.0846,0.9022,1.3039
0.1025,1.0995,0.927,1.304
0.1049,1.1231,0.9646,1.3076
0.1073,1.1475,1.0075,1.3069
0.1098,1.1661,1.039,1.3089
0.1124,1.1754,1.0506,1.3149
0.115,1.176,1.0508,1.3162
0.1177,1.1731,1.0464,1.315
0.1205,1.1712,1.04,1.3189
0.1233,1.1718,1.0357,1.3258
0.1262,1.1741,1.0364,1.3301
0.1291,1.1779,1.0423,1.3311
0.1322,1.185,1.0531,1.3335
0.1352,1.1985,1.0692,1.3435
0.1384,1.2205,1.0921,1.3639
0.1417,1.251,1.1225,1.3941
0.145,1.2864,1.1571,1.4302
0.1484,1.3197,1.19,1.4635
0.1518,1.343,1.214,1.4857
0.1554,1.3504,1.22,1.4947
0.159,1.3394,1.2052,1.4885
0.1628,1.3129,1.179,1.4619
0.1666,1.2787,1.1528,1.4183
0.1705,1.2449,1.1297,1.3719
0.1745,1.2165,1.1094,1.3341
0.1785,1.1961,1.0944,1.3073
0.1827,1.1847,1.0846,1.2941
0.187,1.1815,1.0763,1.2969
0.1914,1.1837,1.0684,1.3114
0.1959,1.1886,1.0624,1.3298
0.2004,1.1952,1.0617,1.3455
0.2051,1.2044,1.0699,1.3558
0.2099,1.2182,1.0889,1.3628
0.2149,1.2383,1.1185,1.3709
0.2199,1.2639,1.1551,1.383
0.225,1.29,1.1891,1.3995
0.2303,1.3093,1.2071,1.42
0.2357,1.3169,1.2059,1.438
0.2412,1.315,1.1968,1.4449
0.2469,1.3127,1.1932,1.4442
0.2526,1.3212,1.2039,1.45
0.2585,1.3484,1.2332,1.4744
0.2646,1.3957,1.2808,1.5211
0.2708,1.4586,1.3405,1.5871
0.2771,1.5288,1.4046,1.664
0.2836,1.598,1.4682,1.7393
0.2903,1.661,1.5279,1.8056
0.2971,1.7172,1.5802,1.8661
0.304,1.7693,1.6246,1.927
0.3111,1.8182,1.6652,1.9853
0.3184,1.8579,1.7015,2.0287
0.3259,1.8777,1.7247,2.0443
0.3335,1.8716,1.7269,2.0285
0.3413,1.8446,1.7097,1.9901
0.3493,1.8099,1.6847,1.9444
0.3575,1.7819,1.6652,1.9069
0.3658,1.7695,1.6582,1.8883
0.3744,1.773,1.6631,1.8902
0.3832,1.7864,1.674,1.9063
0.3921,1.8025,1.6851,1.928
0.4013,1.8183,1.6963,1.9492
0.4107,1.8359,1.7122,1.9686
0.4203,1.8575,1.7354,1.9882
0.4302,1.8801,1.7616,2.0066
0.4402,1.8949,1.7785,2.019
0.4506,1.8931,1.7745,2.0196
0.4611,1.8729,1.7515,2.0026
0.4719,1.843,1.7239,1.9704
0.4829,1.819,1.7068,1.9385
0.4942,1.8139,1.7092,1.9249
0.5058,1.8312,1.7318,1.9362
0.5177,1.8634,1.7651,1.9672
0.5298,1.8976,1.7937,2.0076
0.5422,1.9225,1.8093,2.0428
0.5549,1.9335,1.8151,2.0597
0.5679,1.9335,1.8165,2.0581
0.5812,1.9292,1.8162,2.0492
0.5948,1.9266,1.8152,2.0448
0.6087,1.9292,1.8166,2.0487
0.6229,1.9393,1.8267,2.059
0.6375,1.9594,1.8472,2.0783
0.6525,1.9899,1.8743,2.1127
0.6677,2.0269,1.9057,2.1557
0.6834,2.0607,1.9394,2.1896
0.6994,2.0828,1.9671,2.2052
0.7157,2.0931,1.9792,2.2134
0.7325,2.1002,1.9801,2.2275
0.7496,2.1133,1.9865,2.2483
0.7672,2.134,2.0055,2.2707
0.7851,2.1555,2.0294,2.2894
0.8035,2.1707,2.0482,2.3005
0.8223,2.1793,2.0613,2.304
0.8416,2.1868,2.0752,2.3045
0.8613,2.1989,2.0933,2.3098
0.8815,2.217,2.1137,2.3255
0.9021,2.2391,2.1336,2.3498
0.9232,2.2599,2.1507,2.3745
0.9448,2.2715,2.1601,2.3888
0.9669,2.267,2.154,2.3858
0.9896,2.2455,2.1304,2.3668
1.0128,2.2163,2.0993,2.3397
1.0365,2.1939,2.0769,2.3175
1.0607,2.1894,2.074,2.3113
1.0856,2.205,2.0921,2.3239
1.111,2.2346,2.1234,2.3515
1.137,2.2706,2.1556,2.3918
1.1636,2.3097,2.184,2.4427
1.1908,2.3523,2.2156,2.4975
1.2187,2.397,2.2558,2.5471
1.2473,2.4362,2.2973,2.5834
1.2765,2.4592,2.3231,2.6033
1.3063,2.4615,2.322,2.6095
1.3369,2.4483,2.3006,2.6054
1.3682,2.4289,2.2732,2.5954
1.4003,2.4095,2.2423,2.5892
1.433,2.3895,2.1999,2.5954
1.4666,2.3648,2.1431,2.6095
1.5009,2.3317,2.0779,2.6164
1.5361,2.2884,2.0114,2.6036
1.572,2.2357,1.9473,2.5668
1.6088,2.1763,1.8847,2.5131
1.6465,2.1143,1.8202,2.4559
1.685,2.0533,1.7527,2.4055
1.7245,1.9966,1.6855,2.3651
1.7649,1.9468,1.6227,2.3357
1.8062,1.9054,1.5675,2.3162
1.8485,1.8726,1.5229,2.3025
1.8917,1.8461,1.488,2.2904
1.936,1.8211,1.4572,2.2758
1.9813,1.7923,1.4234,2.2567
2.0277,1.7584,1.3826,2.2363
2.0752,1.7227,1.3392,2.2159
2.1238,1.6892,1.3033,2.1893
2.1735,1.6599,1.2808,2.151
2.2244,1.6338,1.2695,2.1026
2.2765,1.6079,1.2593,2.0529
2.3298,1.5789,1.2379,2.0139
2.3843,1.545,1.1999,1.9894
2.4401,1.5062,1.152,1.9693
2.4973,1.4643,1.1066,1.9376
2.5557,1.4217,1.0719,1.8855
2.6155,1.3805,1.0488,1.8172
2.6768,1.342,1.0313,1.7464
2.7395,1.3069,1.0118,1.6881
2.8036,1.277,0.9888,1.6492
2.8692,1.254,0.9665,1.6269
2.9364,1.2379,0.949,1.6146
3.0051,1.2273,0.9375,1.6067
3.0755,1.2194,0.9307,1.5978
3.1475,1.211,0.9263,1.583
3.2212,1.1991,0.9222,1.559
3.2966,1.1824,0.9161,1.5261
3.3738,1.162,0.9069,1.4888
3.4528,1.1403,0.8949,1.4529
3.5336,1.1196,0.8816,1.4219
3.6163,1.1006,0.868,1.3956
3.701,1.0824,0.8544,1.3712
3.7876,1.0641,0.8405,1.3472
3.8763,1.0456,0.8254,1.3247
3.967,1.0281,0.8099,1.3052
4.0599,1.0133,0.7965,1.289
4.155,1.0023,0.7875,1.2758
4.2522,0.9957,0.7832,1.2659
4.3518,0.9925,0.7825,1.2587
4.4537,0.9909,0.7838,1.2527
4.5579,0.9889,0.7851,1.2458
4.6647,0.9853,0.7851,1.2365
4.7739,0.9799,0.7837,1.2253
4.8856,0.9742,0.782,1.2136
5.0,0.9703,0.7823,1.2034
