# hvsrpy output version 0.5.2
# File Name (),NA
# Method (),geometric-mean
# Azimuth (),0
# Window Length (s),3600.0
# Total Number of Windows (),24
# Frequency Domain Window Rejection Performed (),True
# Lower frequency limit for peaks (Hz),0.006
# Upper frequency limit for peaks (Hz),9.9
# Number of Standard Deviations Used for Rejection () [n],2
# Number of Accepted Windows (),21
# Number of Rejected Windows (),3
# Distribution of f0 (),lognormal
# Median f0 (Hz) [LMf0],0.009
# Lognormal standard deviation f0 () [SigmaLNf0],0.3054
# 68 % Confidence Interval f0 (Hz),0.0066,to,0.0122
# Median T0 (s) [LMT0],111.1449
# Lognormal standard deviation T0 () [SigmaLNT0],0.3054
# 68 % Confidence Interval T0 (s),81.8915,to,150.8481
# Median Curve Distribution (),lognormal
# Median Curve Peak Frequency (Hz) [f0mc],0.0082
# Median Curve Peak Amplitude (),2.9712
# Frequency (Hz),Median Curve,1 STD Below Median Curve,1 STD Above Median Curve
0.005,2.5272,1.1481,5.5625
0.0052,2.6018,1.0773,6.2837
0.0054,2.5938,1.0331,6.5123
0.0056,2.5327,1.0529,6.0923
0.0058,2.5569,1.1823,5.5299
0.0061,2.672,1.3601,5.2493
0.0063,2.7394,1.4415,5.206
0.0065,2.6794,1.4614,4.9126
0.0068,2.6081,1.5059,4.5168
0.0071,2.6764,1.6252,4.4073
0.0073,2.8097,1.7289,4.5661
0.0076,2.8953,1.7379,4.8237
0.0079,2.9413,1.6634,5.201
0.0082,2.9712,1.582,5.5802
0.0085,2.9349,1.5654,5.5028
0.0089,2.7795,1.5327,5.0403
0.0092,2.6,1.4348,4.7115
0.0096,2.5031,1.3287,4.7158
0.0099,2.4372,1.2779,4.6481
0.0103,2.4016,1.2905,4.4693
0.0107,2.4118,1.3352,4.3566
0.0112,2.4128,1.3696,4.2506
0.0116,2.3796,1.3418,4.2201
0.012,2.3212,1.3212,4.078
0.0125,2.2378,1.3272,3.7732
0.013,2.1624,1.291,3.6219
0.0135,2.1554,1.2602,3.6866
0.014,2.2263,1.2605,3.9321
0.0146,2.316,1.2799,4.1909
0.0151,2.3868,1.3166,4.327
0.0157,2.4466,1.3093,4.5718
0.0163,2.4226,1.2632,4.6462
0.017,2.304,1.2299,4.3162
0.0176,2.1742,1.2373,3.8204
0.0183,2.0819,1.2629,3.4321
0.019,2.0723,1.2818,3.3504
0.0198,2.1489,1.2976,3.5589
0.0205,2.216,1.3097,3.7495
0.0213,2.1804,1.2808,3.7116
0.0222,2.0944,1.2519,3.5038
0.023,2.0577,1.2784,3.3119
0.0239,2.0732,1.3296,3.2326
0.0249,2.0982,1.3554,3.248
0.0258,2.1051,1.3385,3.3108
0.0268,2.0848,1.3184,3.2965
0.0279,2.045,1.3084,3.1962
0.029,2.0148,1.3081,3.1032
0.0301,2.0204,1.3218,3.0881
0.0313,2.0644,1.3418,3.176
0.0325,2.1025,1.3681,3.2312
0.0338,2.0964,1.3731,3.2006
0.0351,2.0613,1.3352,3.1822
0.0364,2.0329,1.2975,3.1851
0.0379,2.0329,1.296,3.1886
0.0393,2.046,1.3202,3.1707
0.0409,2.0341,1.3279,3.1159
0.0425,1.9733,1.2863,3.0273
0.0441,1.8826,1.2164,2.9135
0.0458,1.8042,1.1714,2.7788
0.0476,1.7572,1.1487,2.688
0.0495,1.7274,1.1344,2.6303
0.0514,1.7123,1.1436,2.5638
0.0534,1.7153,1.1711,2.5124
0.0555,1.713,1.1794,2.4881
0.0576,1.6848,1.1633,2.4402
0.0599,1.6536,1.1587,2.3598
0.0622,1.6491,1.1868,2.2915
0.0646,1.6843,1.2467,2.2756
0.0671,1.7478,1.309,2.3338
0.0698,1.7838,1.3478,2.3608
0.0725,1.7368,1.3512,2.2323
0.0753,1.6277,1.2992,2.0392
0.0782,1.5131,1.2109,1.8908
0.0813,1.4271,1.1475,1.7747
0.0844,1.3721,1.1204,1.6803
0.0877,1.3255,1.0953,1.6042
0.0911,1.269,1.0559,1.5251
0.0947,1.2017,1.005,1.4368
0.0984,1.1445,0.9709,1.3492
0.1022,1.1214,0.9701,1.2964
0.1062,1.1292,0.9842,1.2956
0.1103,1.1335,0.9825,1.3076
0.1146,1.0991,0.9427,1.2814
0.1191,1.0466,0.8973,1.2207
0.1237,1.0123,0.8962,1.1436
0.1285,0.9933,0.9182,1.0746
0.1335,0.9746,0.905,1.0496
0.1387,0.9411,0.8564,1.0341
0.1441,0.8844,0.8074,0.9687
0.1497,0.8217,0.7619,0.8862
0.1556,0.7726,0.7245,0.824
0.1616,0.7399,0.6968,0.7857
0.1679,0.7254,0.6799,0.7738
0.1744,0.7351,0.6895,0.7837
0.1812,0.7629,0.7194,0.809
0.1883,0.7888,0.7434,0.837
0.1956,0.8022,0.756,0.8513
0.2032,0.8054,0.7607,0.8527
0.2112,0.799,0.7604,0.8395
0.2194,0.7903,0.7582,0.8237
0.2279,0.7917,0.7544,0.8309
0.2368,0.8025,0.7552,0.8528
0.246,0.808,0.759,0.8602
0.2556,0.8056,0.7623,0.8512
0.2655,0.8075,0.7648,0.8527
0.2759,0.815,0.766,0.8672
0.2866,0.8134,0.763,0.8671
0.2978,0.7988,0.7431,0.8586
0.3094,0.7859,0.7156,0.8631
0.3214,0.786,0.7094,0.8708
0.3339,0.7963,0.7276,0.8716
0.3469,0.8095,0.7543,0.8687
0.3604,0.8201,0.772,0.8713
0.3745,0.8288,0.782,0.8785
0.3891,0.8375,0.7981,0.8788
0.4042,0.8396,0.8004,0.8808
0.4199,0.8244,0.782,0.8692
0.4363,0.795,0.7546,0.8375
0.4533,0.7683,0.7318,0.8066
0.4709,0.7555,0.7239,0.7884
0.4893,0.7597,0.7331,0.7874
0.5083,0.7842,0.7566,0.8127
0.5281,0.8219,0.7903,0.8548
0.5487,0.853,0.8195,0.8879
0.57,0.8682,0.829,0.9092
0.5922,0.8814,0.8396,0.9252
0.6153,0.9055,0.8675,0.9451
0.6392,0.9354,0.8942,0.9785
0.6641,0.9604,0.9144,1.0087
0.69,0.972,0.9308,1.0151
0.7168,0.9677,0.9369,0.9994
0.7447,0.9629,0.9368,0.9898
0.7737,0.9784,0.9532,1.0043
0.8039,1.0046,0.98,1.0298
0.8352,1.0106,0.9802,1.0419
0.8677,0.9899,0.9578,1.0232
0.9015,0.9636,0.9376,0.9903
0.9366,0.9415,0.9275,0.9557
0.973,0.9127,0.8959,0.9297
1.0109,0.8688,0.8434,0.895
1.0503,0.8279,0.7993,0.8575
1.0912,0.8194,0.7865,0.8538
1.1336,0.8523,0.8093,0.8975
1.1778,0.909,0.8581,0.963
1.2236,0.969,0.9124,1.0291
1.2713,1.0256,0.9572,1.0988
1.3208,1.0814,1.0059,1.1626
1.3722,1.1361,1.0607,1.2168
1.4256,1.1819,1.0951,1.2756
1.4811,1.2177,1.1164,1.3281
1.5388,1.2587,1.151,1.3765
1.5987,1.3212,1.2075,1.4457
1.661,1.4005,1.2705,1.5437
1.7256,1.4728,1.3228,1.6399
1.7928,1.526,1.3606,1.7116
1.8626,1.5781,1.3957,1.7842
1.9351,1.6534,1.4356,1.9042
2.0105,1.7525,1.4874,2.0648
2.0888,1.848,1.5591,2.1904
2.1701,1.9036,1.6395,2.2101
2.2546,1.9188,1.6979,2.1684
2.3424,1.9247,1.7117,2.1642
2.4336,1.9328,1.7084,2.1868
2.5283,1.9316,1.7028,2.1912
2.6267,1.9145,1.6751,2.1882
2.729,1.8942,1.6129,2.2245
2.8353,1.8807,1.554,2.276
2.9456,1.8636,1.5222,2.2815
3.0603,1.835,1.4789,2.2767
3.1795,1.8066,1.4271,2.2872
3.3033,1.801,1.4095,2.3011
3.4319,1.8358,1.4579,2.3116
3.5655,1.8981,1.5473,2.3285
3.7043,1.9349,1.5979,2.343
3.8486,1.9077,1.5768,2.3079
3.9984,1.8476,1.5266,2.236
4.1541,1.8059,1.5023,2.1708
4.3158,1.7928,1.5058,2.1345
4.4838,1.7968,1.5111,2.1364
4.6584,1.7985,1.504,2.1507
4.8398,1.76,1.467,2.1115
5.0282,1.6507,1.3863,1.9655
5.224,1.4987,1.2832,1.7504
5.4274,1.3694,1.1984,1.5647
5.6387,1.2909,1.142,1.4592
5.8582,1.2562,1.0974,1.438
6.0863,1.2393,1.0496,1.4633
6.3233,1.2088,0.9922,1.4728
6.5695,1.1662,0.9418,1.444
6.8253,1.1455,0.919,1.4279
7.091,1.1625,0.9225,1.4651
7.3671,1.1854,0.9297,1.5114
7.6539,1.1757,0.923,1.4975
7.9519,1.1414,0.9086,1.4339
8.2615,1.1264,0.9009,1.4085
8.5832,1.1385,0.896,1.4465
8.9173,1.1345,0.8798,1.463
9.2645,1.0876,0.8509,1.3903
9.6252,1.0272,0.8228,1.2823
10.0,0.9873,0.8055,1.21
