# hvsrpy output version 0.5.2
# File Name (),NA
# Method (),geometric-mean
# Azimuth (),0
# Window Length (s),1200.0
# Total Number of Windows (),72
# Frequency Domain Window Rejection Performed (),True
# Lower frequency limit for peaks (Hz),0.1
# Upper frequency limit for peaks (Hz),5.0
# Number of Standard Deviations Used for Rejection () [n],2
# Number of Accepted Windows (),70
# Number of Rejected Windows (),2
# Distribution of f0 (),lognormal
# Median f0 (Hz) [LMf0],0.5671
# Lognormal standard deviation f0 () [SigmaLNf0],0.619
# 68 % Confidence Interval f0 (Hz),0.3054,to,1.0532
# Median T0 (s) [LMT0],1.7633
# Lognormal standard deviation T0 () [SigmaLNT0],0.619
# 68 % Confidence Interval T0 (s),0.9495,to,3.2747
# Median Curve Distribution (),lognormal
# Median Curve Peak Frequency (Hz) [f0mc],0.4302
# Median Curve Peak Amplitude (),2.3545
# Frequency (Hz),Median Curve,1 STD Below Median Curve,1 STD Above Median Curve
0.05,1.3311,0.925,1.9154
0.0512,1.3409,0.9366,1.9196
0.0524,1.3519,0.9458,1.9325
0.0536,1.3734,0.9683,1.948
0.0548,1.4068,1.0096,1.9604
0.0561,1.4434,1.0623,1.9612
0.0574,1.471,1.1097,1.95
0.0588,1.4827,1.1377,1.9323
0.0602,1.4816,1.1465,1.9147
0.0616,1.4776,1.1485,1.901
0.063,1.4789,1.1561,1.892
0.0645,1.4874,1.173,1.8861
0.066,1.5001,1.1959,1.8818
0.0675,1.513,1.2183,1.8791
0.0691,1.5213,1.2319,1.8787
0.0707,1.519,1.2302,1.8757
0.0724,1.5019,1.2118,1.8613
0.0741,1.4703,1.178,1.8352
0.0758,1.4289,1.1335,1.8014
0.0776,1.3834,1.0874,1.7599
0.0794,1.3385,1.0464,1.7123
0.0813,1.298,1.0136,1.6623
0.0832,1.2641,0.9915,1.6116
0.0851,1.2369,0.98,1.5611
0.0871,1.2143,0.9741,1.5138
0.0892,1.1934,0.9668,1.473
0.0913,1.1723,0.9569,1.4361
0.0934,1.1504,0.9467,1.398
0.0956,1.1282,0.9331,1.364
0.0978,1.1065,0.9147,1.3385
0.1001,1.0878,0.9003,1.3143
0.1025,1.076,0.8989,1.2881
0.1049,1.075,0.9119,1.2673
0.1073,1.0841,0.934,1.2584
0.1098,1.0976,0.9578,1.2579
0.1124,1.108,0.9761,1.2577
0.115,1.1119,0.9842,1.2562
0.1177,1.1118,0.9829,1.2576
0.1205,1.1125,0.9794,1.2637
0.1233,1.1161,0.9784,1.2732
0.1262,1.1201,0.9792,1.2812
0.1291,1.12,0.98,1.2799
0.1322,1.1127,0.9778,1.2663
0.1352,1.0987,0.9694,1.2452
0.1384,1.0818,0.9559,1.2243
0.1417,1.0682,0.9425,1.2108
0.145,1.0635,0.935,1.2097
0.1484,1.07,0.9369,1.2221
0.1518,1.0864,0.9484,1.2445
0.1554,1.1084,0.9663,1.2715
0.159,1.1323,0.9886,1.297
0.1628,1.1568,1.0159,1.3173
0.1666,1.1821,1.0485,1.3328
0.1705,1.207,1.0822,1.3462
0.1745,1.2284,1.1092,1.3604
0.1785,1.2446,1.1256,1.3762
0.1827,1.2576,1.1372,1.3908
0.187,1.2717,1.1527,1.4029
0.1914,1.2898,1.1747,1.4163
0.1959,1.3131,1.1987,1.4384
0.2004,1.3409,1.222,1.4713
0.2051,1.3715,1.2476,1.5078
0.2099,1.4029,1.2776,1.5405
0.2149,1.4337,1.3092,1.57
0.2199,1.4637,1.3367,1.6029
0.225,1.4935,1.3585,1.6418
0.2303,1.5225,1.3798,1.6798
0.2357,1.5495,1.4055,1.7081
0.2412,1.5739,1.4348,1.7265
0.2469,1.5981,1.4622,1.7468
0.2526,1.6278,1.4858,1.7834
0.2585,1.6685,1.5143,1.8384
0.2646,1.7216,1.5577,1.9027
0.2708,1.7828,1.6156,1.9672
0.2771,1.8434,1.6752,2.0285
0.2836,1.8963,1.7228,2.0873
0.2903,1.9395,1.7579,2.1398
0.2971,1.9765,1.7896,2.183
0.304,2.0127,1.8241,2.2208
0.3111,2.0514,1.8642,2.2574
0.3184,2.0929,1.9112,2.2918
0.3259,2.1339,1.9622,2.3206
0.3335,2.1682,2.006,2.3436
0.3413,2.1891,2.0268,2.3644
0.3493,2.1921,2.0178,2.3815
0.3575,2.1798,1.9906,2.387
0.3658,2.1625,1.9649,2.3799
0.3744,2.1548,1.9584,2.3709
0.3832,2.1677,1.9792,2.3742
0.3921,2.2031,2.0224,2.4
0.4013,2.2533,2.0746,2.4475
0.4107,2.3045,2.1235,2.5008
0.4203,2.3417,2.1634,2.5346
0.4302,2.3545,2.188,2.5336
0.4402,2.3401,2.1836,2.5078
0.4506,2.3026,2.1434,2.4735
0.4611,2.2488,2.0817,2.4293
0.4719,2.1857,2.0159,2.3699
0.4829,2.1196,1.956,2.2969
0.4942,2.0559,1.9059,2.2178
0.5058,1.9995,1.8655,2.1431
0.5177,1.9538,1.8334,2.0821
0.5298,1.9194,1.8084,2.0372
0.5422,1.8934,1.7861,2.0071
0.5549,1.871,1.7582,1.991
0.5679,1.8486,1.723,1.9833
0.5812,1.8255,1.6848,1.9779
0.5948,1.8031,1.646,1.9751
0.6087,1.7836,1.6093,1.9767
0.6229,1.7693,1.5804,1.9807
0.6375,1.7632,1.5657,1.9857
0.6525,1.7688,1.5688,1.9942
0.6677,1.7875,1.5912,2.008
0.6834,1.818,1.6317,2.0257
0.6994,1.856,1.6838,2.0459
0.7157,1.8964,1.7353,2.0725
0.7325,1.9356,1.7753,2.1104
0.7496,1.9718,1.8049,2.1541
0.7672,2.0025,1.8316,2.1895
0.7851,2.023,1.8555,2.2057
0.8035,2.0273,1.8642,2.2046
0.8223,2.0134,1.8434,2.1991
0.8416,1.9879,1.798,2.1978
0.8613,1.9637,1.7522,2.2007
0.8815,1.9533,1.7286,2.2072
0.9021,1.9623,1.7371,2.2168
0.9232,1.9881,1.7737,2.2284
0.9448,2.0229,1.824,2.2434
0.9669,2.0579,1.8705,2.2641
0.9896,2.0863,1.904,2.2862
1.0128,2.1021,1.9226,2.2985
1.0365,2.0998,1.9206,2.2959
1.0607,2.076,1.8925,2.2772
1.0856,2.0316,1.8442,2.238
1.111,1.9728,1.7869,2.178
1.137,1.9083,1.7291,2.1061
1.1636,1.8469,1.677,2.0341
1.1908,1.7974,1.6382,1.9722
1.2187,1.7683,1.6188,1.9316
1.2473,1.7652,1.6179,1.9258
1.2765,1.7877,1.6278,1.9632
1.3063,1.8277,1.642,2.0344
1.3369,1.8724,1.6586,2.1138
1.3682,1.9107,1.679,2.1745
1.4003,1.9395,1.7036,2.2081
1.433,1.9624,1.7276,2.2291
1.4666,1.9842,1.7439,2.2577
1.5009,2.0078,1.7523,2.3005
1.5361,2.0331,1.7593,2.3494
1.572,2.0576,1.7703,2.3917
1.6088,2.0765,1.7846,2.4161
1.6465,2.0833,1.7941,2.4191
1.685,2.0749,1.7865,2.41
1.7245,2.0543,1.7557,2.4036
1.7649,2.0295,1.7108,2.4075
1.8062,2.0087,1.668,2.419
1.8485,1.9955,1.6389,2.4295
1.8917,1.9883,1.6274,2.4293
1.936,1.9828,1.6307,2.4109
1.9813,1.9721,1.6405,2.3707
2.0277,1.9496,1.6468,2.3081
2.0752,1.9121,1.6424,2.2262
2.1238,1.8629,1.6266,2.1335
2.1735,1.81,1.604,2.0424
2.2244,1.7626,1.5792,1.9674
2.2765,1.7277,1.556,1.9182
2.3298,1.7081,1.5396,1.8951
2.3843,1.7026,1.5291,1.8958
2.4401,1.7055,1.5173,1.9169
2.4973,1.7086,1.5006,1.9453
2.5557,1.703,1.4816,1.9575
2.6155,1.6826,1.463,1.9353
2.6768,1.6475,1.4423,1.8818
2.7395,1.6037,1.4131,1.82
2.8036,1.5597,1.3739,1.7706
2.8692,1.5206,1.3315,1.7365
2.9364,1.4861,1.2912,1.7105
3.0051,1.4524,1.2519,1.6849
3.0755,1.4154,1.2105,1.6549
3.1475,1.3743,1.1658,1.6201
3.2212,1.3318,1.1189,1.5852
3.2966,1.2926,1.0734,1.5564
3.3738,1.2606,1.0341,1.5365
3.4528,1.2365,1.0038,1.5231
3.5336,1.2179,0.9818,1.5108
3.6163,1.2017,0.965,1.4966
3.701,1.1863,0.9494,1.4824
3.7876,1.1717,0.9326,1.4721
3.8763,1.1586,0.9154,1.4663
3.967,1.1473,0.9008,1.4612
4.0599,1.1379,0.8906,1.4539
4.155,1.1308,0.8851,1.4448
4.2522,1.1266,0.8841,1.4357
4.3518,1.1265,0.8882,1.4286
4.4537,1.1313,0.8973,1.4263
4.5579,1.142,0.9109,1.4317
4.6647,1.1592,0.9296,1.4455
4.7739,1.1824,0.9544,1.4649
4.8856,1.2101,0.985,1.4866
5.0,1.2395,1.0185,1.5084
