# hvsrpy output version 0.5.2
# File Name (),NA
# Method (),geometric-mean
# Azimuth (),0
# Window Length (s),1200.0
# Total Number of Windows (),72
# Frequency Domain Window Rejection Performed (),True
# Lower frequency limit for peaks (Hz),0.1
# Upper frequency limit for peaks (Hz),5.0
# Number of Standard Deviations Used for Rejection () [n],2
# Number of Accepted Windows (),50
# Number of Rejected Windows (),22
# Distribution of f0 (),lognormal
# Median f0 (Hz) [LMf0],1.3039
# Lognormal standard deviation f0 () [SigmaLNf0],0.0539
# 68 % Confidence Interval f0 (Hz),1.2355,to,1.3761
# Median T0 (s) [LMT0],0.7669
# Lognormal standard deviation T0 () [SigmaLNT0],0.0539
# 68 % Confidence Interval T0 (s),0.7267,to,0.8094
# Median Curve Distribution (),lognormal
# Median Curve Peak Frequency (Hz) [f0mc],1.2765
# Median Curve Peak Amplitude (),2.4249
# Frequency (Hz),Median Curve,1 STD Below Median Curve,1 STD Above Median Curve
0.05,1.9018,0.9885,3.6587
0.0512,2.0725,1.1011,3.9007
0.0524,2.2839,1.2448,4.1904
0.0536,2.5017,1.3898,4.5033
0.0548,2.6788,1.495,4.8
0.0561,2.7837,1.5428,5.0228
0.0574,2.8246,1.5535,5.1355
0.0588,2.8407,1.5592,5.1755
0.0602,2.8693,1.5799,5.2111
0.0616,2.9218,1.6212,5.2658
0.063,2.9805,1.6749,5.3037
0.0645,3.0133,1.7254,5.2624
0.066,2.9944,1.761,5.0919
0.0675,2.9111,1.7738,4.7775
0.0691,2.7642,1.7535,4.3574
0.0707,2.5659,1.6906,3.8944
0.0724,2.3338,1.5886,3.4284
0.0741,2.0902,1.4682,2.9756
0.0758,1.8617,1.3504,2.5667
0.0776,1.6702,1.2444,2.2416
0.0794,1.5246,1.1535,2.0153
0.0813,1.4222,1.0802,1.8725
0.0832,1.354,1.0266,1.7858
0.0851,1.3099,0.9914,1.7307
0.0871,1.2802,0.9698,1.69
0.0892,1.2565,0.9562,1.6512
0.0913,1.2327,0.946,1.6063
0.0934,1.2058,0.9359,1.5534
0.0956,1.1762,0.9263,1.4934
0.0978,1.1482,0.9213,1.4308
0.1001,1.1286,0.9243,1.378
0.1025,1.1229,0.9362,1.3468
0.1049,1.1314,0.9559,1.3391
0.1073,1.1491,0.9783,1.3496
0.1098,1.1685,0.998,1.3682
0.1124,1.1842,1.0144,1.3826
0.115,1.1945,1.0271,1.3891
0.1177,1.1991,1.0337,1.391
0.1205,1.1982,1.0346,1.3876
0.1233,1.1924,1.0324,1.3772
0.1262,1.1843,1.0315,1.3598
0.1291,1.1783,1.0382,1.3373
0.1322,1.1787,1.0556,1.3162
0.1352,1.1873,1.0779,1.3079
0.1384,1.2019,1.0978,1.3159
0.1417,1.2186,1.1125,1.3347
0.145,1.235,1.121,1.3605
0.1484,1.2519,1.1276,1.39
0.1518,1.2722,1.1394,1.4204
0.1554,1.2976,1.1582,1.4538
0.159,1.327,1.1804,1.4918
0.1628,1.3551,1.2011,1.5287
0.1666,1.3745,1.2156,1.5543
0.1705,1.3798,1.2187,1.5622
0.1745,1.3697,1.2096,1.5509
0.1785,1.3469,1.1931,1.5204
0.1827,1.3169,1.1745,1.4766
0.187,1.2861,1.1539,1.4335
0.1914,1.26,1.1322,1.4022
0.1959,1.2425,1.1178,1.3811
0.2004,1.2367,1.1183,1.3676
0.2051,1.2434,1.1306,1.3675
0.2099,1.2603,1.1474,1.3842
0.2149,1.2818,1.1675,1.4073
0.2199,1.3012,1.1904,1.4223
0.225,1.3135,1.2106,1.4253
0.2303,1.3171,1.2214,1.4203
0.2357,1.3136,1.2218,1.4121
0.2412,1.3065,1.2149,1.4049
0.2469,1.3012,1.2069,1.403
0.2526,1.3045,1.2053,1.4119
0.2585,1.3228,1.2161,1.4388
0.2646,1.3592,1.243,1.4863
0.2708,1.4123,1.2877,1.5489
0.2771,1.4758,1.3465,1.6175
0.2836,1.5421,1.4104,1.6862
0.2903,1.6065,1.4716,1.7539
0.2971,1.6683,1.5305,1.8184
0.304,1.7274,1.5924,1.8737
0.3111,1.7787,1.653,1.9139
0.3184,1.8105,1.6905,1.939
0.3259,1.8111,1.6866,1.9448
0.3335,1.7798,1.6504,1.9193
0.3413,1.7304,1.6036,1.8672
0.3493,1.6823,1.5623,1.8114
0.3575,1.6501,1.5358,1.7729
0.3658,1.6391,1.5263,1.7602
0.3744,1.646,1.5312,1.7695
0.3832,1.6633,1.5457,1.7899
0.3921,1.6836,1.5642,1.8121
0.4013,1.7043,1.5819,1.8362
0.4107,1.7277,1.5962,1.87
0.4203,1.7557,1.61,1.9145
0.4302,1.7844,1.6273,1.9567
0.4402,1.8054,1.6462,1.98
0.4506,1.8115,1.6595,1.9774
0.4611,1.8031,1.6628,1.9552
0.4719,1.7883,1.6598,1.9267
0.4829,1.7778,1.6598,1.9043
0.4942,1.779,1.6694,1.8958
0.5058,1.7921,1.6877,1.903
0.5177,1.8112,1.7076,1.9212
0.5298,1.8291,1.7229,1.9419
0.5422,1.8404,1.7316,1.9561
0.5549,1.8439,1.7346,1.96
0.5679,1.8419,1.7303,1.9606
0.5812,1.8392,1.7187,1.9681
0.5948,1.841,1.7091,1.9831
0.6087,1.8505,1.7127,1.9995
0.6229,1.869,1.7338,2.0147
0.6375,1.895,1.769,2.0299
0.6525,1.9248,1.8109,2.0458
0.6677,1.9518,1.8488,2.0605
0.6834,1.9687,1.867,2.0759
0.6994,1.9728,1.861,2.0913
0.7157,1.9697,1.8472,2.1005
0.7325,1.9707,1.8451,2.1049
0.7496,1.9842,1.8628,2.1135
0.7672,2.0092,1.8946,2.1306
0.7851,2.0361,1.9278,2.1505
0.8035,2.0549,1.9511,2.1643
0.8223,2.0642,1.9624,2.1712
0.8416,2.0722,1.9703,2.1794
0.8613,2.0893,1.9888,2.1948
0.8815,2.1192,2.0203,2.2229
0.9021,2.1571,2.049,2.2709
0.9232,2.1916,2.0656,2.3253
0.9448,2.2106,2.074,2.3562
0.9669,2.2087,2.0733,2.3529
0.9896,2.1909,2.0607,2.3294
1.0128,2.1698,2.0416,2.3061
1.0365,2.1581,2.0271,2.2975
1.0607,2.163,2.0273,2.3079
1.0856,2.1852,2.0469,2.3329
1.111,2.2194,2.0805,2.3676
1.137,2.2593,2.1184,2.4097
1.1636,2.3014,2.1554,2.4572
1.1908,2.3438,2.1904,2.508
1.2187,2.3829,2.2199,2.5578
1.2473,2.4117,2.2381,2.5987
1.2765,2.4249,2.2406,2.6242
1.3063,2.4231,2.228,2.6353
1.3369,2.411,2.2074,2.6333
1.3682,2.3913,2.1868,2.6151
1.4003,2.3638,2.1676,2.5777
1.433,2.3277,2.1458,2.5249
1.4666,2.2858,2.1178,2.4672
1.5009,2.2439,2.0842,2.4157
1.5361,2.2052,2.0442,2.3788
1.572,2.1681,1.9914,2.3605
1.6088,2.1286,1.9267,2.3517
1.6465,2.0857,1.8625,2.3358
1.685,2.0436,1.8103,2.307
1.7245,2.0081,1.7745,2.2725
1.7649,1.9829,1.7529,2.2431
1.8062,1.9672,1.741,2.2228
1.8485,1.9569,1.7339,2.2086
1.8917,1.9463,1.7259,2.1948
1.936,1.9309,1.7103,2.1799
1.9813,1.9085,1.6828,2.1644
2.0277,1.8788,1.6488,2.1409
2.0752,1.8418,1.619,2.0954
2.1238,1.798,1.597,2.0242
2.1735,1.7489,1.5739,1.9432
2.2244,1.698,1.5373,1.8755
2.2765,1.6497,1.4876,1.8296
2.3298,1.6077,1.4355,1.8005
2.3843,1.5727,1.3872,1.7829
2.4401,1.5428,1.3456,1.7689
2.4973,1.515,1.3115,1.7501
2.5557,1.487,1.2826,1.7241
2.6155,1.4587,1.2558,1.6945
2.6768,1.4322,1.2306,1.6669
2.7395,1.4107,1.2086,1.6467
2.8036,1.3969,1.1909,1.6385
2.8692,1.3898,1.178,1.6396
2.9364,1.3842,1.1683,1.6401
3.0051,1.3734,1.1557,1.6321
3.0755,1.3524,1.133,1.6143
3.1475,1.3208,1.0984,1.5883
3.2212,1.2833,1.0575,1.5573
3.2966,1.2462,1.0177,1.5261
3.3738,1.2142,0.9835,1.4989
3.4528,1.1888,0.9567,1.477
3.5336,1.1692,0.937,1.4591
3.6163,1.1542,0.9224,1.4441
3.701,1.1427,0.9108,1.4336
3.7876,1.1349,0.9013,1.4291
3.8763,1.1312,0.8946,1.4304
3.967,1.1315,0.8919,1.4355
4.0599,1.1352,0.8936,1.4421
4.155,1.1416,0.8995,1.4488
4.2522,1.1504,0.9089,1.4561
4.3518,1.1613,0.9202,1.4654
4.4537,1.1732,0.9316,1.4774
4.5579,1.1844,0.9411,1.4906
4.6647,1.193,0.9474,1.5024
4.7739,1.1984,0.9499,1.5119
4.8856,1.2016,0.9497,1.5201
5.0,1.2048,0.9499,1.528
