# hvsrpy output version 0.5.2
# File Name (),NA
# Method (),geometric-mean
# Azimuth (),0
# Window Length (s),1200.0
# Total Number of Windows (),72
# Frequency Domain Window Rejection Performed (),True
# Lower frequency limit for peaks (Hz),0.1
# Upper frequency limit for peaks (Hz),5.0
# Number of Standard Deviations Used for Rejection () [n],2
# Number of Accepted Windows (),72
# Number of Rejected Windows (),0
# Distribution of f0 (),lognormal
# Median f0 (Hz) [LMf0],0.9864
# Lognormal standard deviation f0 () [SigmaLNf0],0.6189
# 68 % Confidence Interval f0 (Hz),0.5312,to,1.8316
# Median T0 (s) [LMT0],1.0138
# Lognormal standard deviation T0 () [SigmaLNT0],0.6189
# 68 % Confidence Interval T0 (s),0.546,to,1.8824
# Median Curve Distribution (),lognormal
# Median Curve Peak Frequency (Hz) [f0mc],1.111
# Median Curve Peak Amplitude (),2.3245
# Frequency (Hz),Median Curve,1 STD Below Median Curve,1 STD Above Median Curve
0.05,1.5029,0.8133,2.7771
0.0512,1.516,0.8347,2.7534
0.0524,1.539,0.8541,2.7732
0.0536,1.568,0.8668,2.8364
0.0548,1.5974,0.8757,2.9138
0.0561,1.622,0.8863,2.9684
0.0574,1.6409,0.9018,2.9856
0.0588,1.6569,0.9227,2.9752
0.0602,1.6721,0.946,2.9557
0.0616,1.6867,0.9675,2.9405
0.063,1.7012,0.987,2.9321
0.0645,1.7167,1.0088,2.9213
0.066,1.7349,1.0373,2.9016
0.0675,1.7593,1.0727,2.8855
0.0691,1.7918,1.1113,2.889
0.0707,1.825,1.1472,2.9031
0.0724,1.8418,1.1734,2.891
0.0741,1.8263,1.1819,2.8219
0.0758,1.7767,1.1668,2.7054
0.0776,1.7088,1.1317,2.5804
0.0794,1.6432,1.0913,2.4743
0.0813,1.5918,1.0589,2.393
0.0832,1.5538,1.0369,2.3285
0.0851,1.5214,1.0211,2.2667
0.0871,1.4873,1.0066,2.1976
0.0892,1.4474,0.9892,2.1178
0.0913,1.399,0.9671,2.0236
0.0934,1.3407,0.9413,1.9096
0.0956,1.2746,0.9152,1.775
0.0978,1.2074,0.8935,1.6316
0.1001,1.1498,0.8818,1.4992
0.1025,1.1122,0.883,1.4008
0.1049,1.0996,0.8933,1.3536
0.1073,1.1099,0.9098,1.354
0.1098,1.1355,0.9361,1.3773
0.1124,1.1679,0.9753,1.3987
0.115,1.1999,1.0224,1.4082
0.1177,1.2254,1.0649,1.4102
0.1205,1.2401,1.089,1.4123
0.1233,1.2417,1.092,1.4119
0.1262,1.2296,1.0816,1.3979
0.1291,1.2056,1.0646,1.3652
0.1322,1.1733,1.0417,1.3216
0.1352,1.1388,1.0134,1.2797
0.1384,1.1082,0.987,1.2443
0.1417,1.0865,0.9716,1.2149
0.145,1.0757,0.9681,1.1952
0.1484,1.0747,0.9677,1.1936
0.1518,1.0801,0.9651,1.2087
0.1554,1.0885,0.9645,1.2286
0.159,1.099,0.9708,1.2441
0.1628,1.1122,0.9862,1.2544
0.1666,1.1293,1.0095,1.2634
0.1705,1.1497,1.0373,1.2742
0.1745,1.1707,1.0645,1.2874
0.1785,1.1889,1.0851,1.3027
0.1827,1.2035,1.0959,1.3216
0.187,1.2179,1.1025,1.3454
0.1914,1.2376,1.1158,1.3727
0.1959,1.2651,1.1434,1.3998
0.2004,1.2984,1.1836,1.4243
0.2051,1.3326,1.2264,1.4479
0.2099,1.3623,1.259,1.4741
0.2149,1.3852,1.2765,1.5032
0.2199,1.403,1.2845,1.5324
0.225,1.4196,1.2922,1.5594
0.2303,1.4384,1.3059,1.5844
0.2357,1.4607,1.327,1.6079
0.2412,1.4856,1.353,1.6312
0.2469,1.5121,1.3797,1.6571
0.2526,1.5415,1.4056,1.6906
0.2585,1.5777,1.4346,1.7352
0.2646,1.6243,1.4739,1.7901
0.2708,1.681,1.5265,1.8512
0.2771,1.7422,1.5856,1.9142
0.2836,1.799,1.638,1.9759
0.2903,1.8446,1.6773,2.0287
0.2971,1.878,1.709,2.0637
0.304,1.9045,1.7411,2.0831
0.3111,1.9321,1.7761,2.1018
0.3184,1.9664,1.8128,2.1329
0.3259,2.0074,1.8511,2.1769
0.3335,2.0491,1.8896,2.2221
0.3413,2.0813,1.922,2.2538
0.3493,2.0958,1.94,2.2641
0.3575,2.093,1.9418,2.2559
0.3658,2.083,1.9355,2.2417
0.3744,2.0799,1.9338,2.237
0.3832,2.0941,1.946,2.2534
0.3921,2.1274,1.9703,2.297
0.4013,2.1725,1.9998,2.3602
0.4107,2.2158,2.0299,2.4188
0.4203,2.2443,2.0556,2.4503
0.4302,2.2521,2.0695,2.4509
0.4402,2.2419,2.0673,2.4311
0.4506,2.2184,2.0519,2.3984
0.4611,2.1835,2.0256,2.3538
0.4719,2.1364,1.9849,2.2995
0.4829,2.0788,1.9305,2.2385
0.4942,2.018,1.8738,2.1733
0.5058,1.9644,1.8281,2.1109
0.5177,1.9257,1.7981,2.0623
0.5298,1.9021,1.7794,2.0332
0.5422,1.8865,1.765,2.0164
0.5549,1.8695,1.7488,1.9985
0.5679,1.8451,1.7238,1.9751
0.5812,1.8132,1.6874,1.9485
0.5948,1.7776,1.6473,1.9181
0.6087,1.7436,1.6142,1.8833
0.6229,1.7168,1.5935,1.8496
0.6375,1.7021,1.5839,1.8292
0.6525,1.7033,1.581,1.8351
0.6677,1.7221,1.5832,1.8732
0.6834,1.7572,1.5966,1.9339
0.6994,1.8035,1.6291,1.9966
0.7157,1.8534,1.6795,2.0454
0.7325,1.8994,1.7365,2.0776
0.7496,1.9369,1.7877,2.0986
0.7672,1.9657,1.8275,2.1143
0.7851,1.9872,1.8556,2.1281
0.8035,2.0006,1.8698,2.1406
0.8223,2.003,1.8669,2.149
0.8416,1.9937,1.8502,2.1484
0.8613,1.9792,1.8317,2.1386
0.8815,1.9713,1.8255,2.1287
0.9021,1.9811,1.8396,2.1334
0.9232,2.0134,1.873,2.1643
0.9448,2.0644,1.9176,2.2225
0.9669,2.1248,1.9642,2.2986
0.9896,2.1848,2.0096,2.3753
1.0128,2.2378,2.0545,2.4376
1.0365,2.28,2.0956,2.4806
1.0607,2.3091,2.1242,2.5101
1.0856,2.3241,2.1287,2.5374
1.111,2.3245,2.1032,2.5692
1.137,2.3095,2.0545,2.5962
1.1636,2.2795,1.9972,2.6016
1.1908,2.2394,1.9426,2.5815
1.2187,2.1992,1.8949,2.5523
1.2473,2.1688,1.8531,2.5382
1.2765,2.1531,1.8171,2.5512
1.3063,2.1507,1.7898,2.5845
1.3369,2.1561,1.7729,2.6222
1.3682,2.1637,1.7667,2.6501
1.4003,2.1698,1.7699,2.6601
1.433,2.1726,1.7781,2.6547
1.4666,2.1726,1.7828,2.6477
1.5009,2.1726,1.7803,2.6513
1.5361,2.176,1.7765,2.6653
1.572,2.1847,1.7785,2.6836
1.6088,2.1955,1.7838,2.7022
1.6465,2.2008,1.7823,2.7175
1.685,2.1935,1.7681,2.7214
1.7245,2.1727,1.7431,2.7082
1.7649,2.1436,1.7127,2.6828
1.8062,2.1133,1.684,2.652
1.8485,2.0872,1.6642,2.6179
1.8917,2.0678,1.6551,2.5834
1.936,2.0531,1.6516,2.5522
1.9813,2.0364,1.6447,2.5214
2.0277,2.0076,1.6261,2.4786
2.0752,1.9594,1.5921,2.4113
2.1238,1.8937,1.5456,2.3202
2.1735,1.8222,1.4935,2.2233
2.2244,1.7588,1.4451,2.1405
2.2765,1.7109,1.4081,2.0788
2.3298,1.6768,1.3834,2.0325
2.3843,1.6488,1.3648,1.9919
2.4401,1.6192,1.3452,1.9489
2.4973,1.5845,1.3202,1.9016
2.5557,1.5455,1.2886,1.8537
2.6155,1.5047,1.2521,1.8082
2.6768,1.4628,1.2135,1.7632
2.7395,1.4187,1.1741,1.7142
2.8036,1.3713,1.1341,1.658
2.8692,1.3208,1.0929,1.5961
2.9364,1.2687,1.0499,1.5332
3.0051,1.2168,1.0045,1.474
3.0755,1.1658,0.9576,1.4194
3.1475,1.1163,0.9124,1.3657
3.2212,1.0693,0.8727,1.3101
3.2966,1.0268,0.8399,1.2553
3.3738,0.9907,0.8137,1.2061
3.4528,0.9618,0.7933,1.1661
3.5336,0.9397,0.7775,1.1356
3.6163,0.9222,0.7646,1.1123
3.701,0.9074,0.7529,1.0936
3.7876,0.8946,0.7412,1.0799
3.8763,0.8849,0.7296,1.0733
3.967,0.8798,0.7203,1.0748
4.0599,0.8802,0.7152,1.0833
4.155,0.8854,0.7148,1.0966
4.2522,0.8933,0.7179,1.1116
4.3518,0.9022,0.7235,1.125
4.4537,0.9107,0.7312,1.1342
4.5579,0.9184,0.741,1.1383
4.6647,0.9251,0.7521,1.138
4.7739,0.9311,0.7637,1.1351
4.8856,0.9366,0.7749,1.132
5.0,0.9422,0.7852,1.1306
