# hvsrpy output version 0.5.2
# File Name (),NA
# Method (),geometric-mean
# Azimuth (),0
# Window Length (s),1200.0
# Total Number of Windows (),72
# Frequency Domain Window Rejection Performed (),True
# Lower frequency limit for peaks (Hz),0.1
# Upper frequency limit for peaks (Hz),5.0
# Number of Standard Deviations Used for Rejection () [n],2
# Number of Accepted Windows (),71
# Number of Rejected Windows (),1
# Distribution of f0 (),lognormal
# Median f0 (Hz) [LMf0],0.8288
# Lognormal standard deviation f0 () [SigmaLNf0],0.7472
# 68 % Confidence Interval f0 (Hz),0.3926,to,1.7496
# Median T0 (s) [LMT0],1.2066
# Lognormal standard deviation T0 () [SigmaLNT0],0.7472
# 68 % Confidence Interval T0 (s),0.5716,to,2.5471
# Median Curve Distribution (),lognormal
# Median Curve Peak Frequency (Hz) [f0mc],0.4302
# Median Curve Peak Amplitude (),2.2981
# Frequency (Hz),Median Curve,1 STD Below Median Curve,1 STD Above Median Curve
0.05,1.45,0.9633,2.1828
0.0512,1.4473,0.9562,2.1906
0.0524,1.4283,0.9441,2.1608
0.0536,1.4059,0.9322,2.1204
0.0548,1.3893,0.9251,2.0864
0.0561,1.3849,0.9272,2.0685
0.0574,1.3964,0.9418,2.0702
0.0588,1.4224,0.9696,2.0865
0.0602,1.4544,1.0084,2.0978
0.0616,1.4809,1.0507,2.0872
0.063,1.4939,1.083,2.0607
0.0645,1.4945,1.0982,2.0338
0.066,1.4884,1.1001,2.0139
0.0675,1.48,1.096,1.9986
0.0691,1.4713,1.0942,1.9782
0.0707,1.4634,1.1009,1.9452
0.0724,1.457,1.1142,1.9051
0.0741,1.4517,1.125,1.8731
0.0758,1.4481,1.1314,1.8536
0.0776,1.4457,1.1395,1.8342
0.0794,1.439,1.1486,1.8027
0.0813,1.4211,1.1479,1.7594
0.0832,1.3911,1.1315,1.7102
0.0851,1.3549,1.105,1.6614
0.0871,1.3215,1.0777,1.6204
0.0892,1.2965,1.0585,1.588
0.0913,1.2807,1.0529,1.5579
0.0934,1.2716,1.0585,1.5276
0.0956,1.2662,1.0675,1.5019
0.0978,1.261,1.0714,1.4841
0.1001,1.252,1.0663,1.4701
0.1025,1.2367,1.0541,1.451
0.1049,1.2176,1.0407,1.4246
0.1073,1.2028,1.0328,1.4007
0.1098,1.202,1.0359,1.3946
0.1124,1.2206,1.0538,1.4137
0.115,1.2555,1.0851,1.4526
0.1177,1.2952,1.1208,1.4967
0.1205,1.3248,1.1474,1.5295
0.1233,1.3332,1.1541,1.5401
0.1262,1.3186,1.1375,1.5286
0.1291,1.2877,1.1039,1.502
0.1322,1.2501,1.0666,1.4652
0.1352,1.2135,1.0364,1.4208
0.1384,1.1819,1.0171,1.3733
0.1417,1.1574,1.0073,1.3299
0.145,1.1412,1.0032,1.2981
0.1484,1.1327,1.0024,1.2799
0.1518,1.13,1.006,1.2694
0.1554,1.131,1.0148,1.2605
0.159,1.1339,1.0262,1.2529
0.1628,1.138,1.036,1.25
0.1666,1.1439,1.0425,1.2552
0.1705,1.1533,1.0468,1.2706
0.1745,1.1676,1.0527,1.295
0.1785,1.1867,1.0652,1.3221
0.1827,1.2096,1.0873,1.3456
0.187,1.2357,1.1171,1.3669
0.1914,1.266,1.1497,1.394
0.1959,1.3012,1.1826,1.4318
0.2004,1.3407,1.2167,1.4772
0.2051,1.3818,1.252,1.525
0.2099,1.4212,1.2851,1.5716
0.2149,1.456,1.3129,1.6145
0.2199,1.4847,1.3345,1.652
0.225,1.5075,1.3519,1.6811
0.2303,1.5247,1.3689,1.6982
0.2357,1.5366,1.3868,1.7026
0.2412,1.5459,1.4047,1.7014
0.2469,1.5587,1.4213,1.7094
0.2526,1.5842,1.4395,1.7433
0.2585,1.6303,1.469,1.8094
0.2646,1.699,1.5206,1.8984
0.2708,1.7824,1.5954,1.9913
0.2771,1.8646,1.6811,2.068
0.2836,1.9286,1.7574,2.1165
0.2903,1.9652,1.8063,2.1381
0.2971,1.9763,1.8247,2.1405
0.304,1.9726,1.8259,2.1312
0.3111,1.967,1.8249,2.1201
0.3184,1.9681,1.8292,2.1175
0.3259,1.9785,1.8396,2.128
0.3335,1.9951,1.8551,2.1455
0.3413,2.0117,1.8726,2.1612
0.3493,2.0238,1.8859,2.1718
0.3575,2.0312,1.8927,2.1799
0.3658,2.0395,1.8994,2.1899
0.3744,2.0574,1.9159,2.2094
0.3832,2.0921,1.9498,2.2448
0.3921,2.1437,2.0009,2.2967
0.4013,2.2036,2.0586,2.3589
0.4107,2.2571,2.1066,2.4184
0.4203,2.2903,2.1323,2.46
0.4302,2.2981,2.1341,2.4746
0.4402,2.2843,2.1198,2.4615
0.4506,2.2545,2.0966,2.4244
0.4611,2.21,2.0597,2.3713
0.4719,2.1497,2.0019,2.3084
0.4829,2.0771,1.9305,2.2348
0.4942,2.0025,1.8607,2.1552
0.5058,1.9379,1.8023,2.0837
0.5177,1.8891,1.7582,2.0297
0.5298,1.8534,1.7265,1.9896
0.5422,1.8233,1.7004,1.9551
0.5549,1.793,1.6711,1.9238
0.5679,1.7615,1.6344,1.8984
0.5812,1.7313,1.5998,1.8736
0.5948,1.7054,1.5811,1.8394
0.6087,1.686,1.5779,1.8016
0.6229,1.6744,1.5787,1.776
0.6375,1.6724,1.5802,1.77
0.6525,1.6842,1.5914,1.7825
0.6677,1.7149,1.6195,1.8159
0.6834,1.7664,1.6654,1.8736
0.6994,1.8349,1.7259,1.9507
0.7157,1.911,1.7936,2.036
0.7325,1.984,1.8568,2.12
0.7496,2.0458,1.9069,2.1947
0.7672,2.091,1.9416,2.252
0.7851,2.1162,1.9593,2.2857
0.8035,2.1184,1.9571,2.2931
0.8223,2.0986,1.9354,2.2755
0.8416,2.065,1.9032,2.2405
0.8613,2.0324,1.873,2.2054
0.8815,2.0157,1.8527,2.193
0.9021,2.0221,1.8452,2.2161
0.9232,2.0491,1.853,2.2659
0.9448,2.0869,1.8761,2.3214
0.9669,2.1255,1.9093,2.3661
0.9896,2.1582,1.9464,2.3931
1.0128,2.1807,1.9824,2.3988
1.0365,2.1875,2.0116,2.3788
1.0607,2.1733,2.024,2.3336
1.0856,2.1375,2.0097,2.2734
1.111,2.0861,1.9679,2.2115
1.137,2.0285,1.9089,2.1557
1.1636,1.9729,1.844,2.1107
1.1908,1.9254,1.7838,2.0782
1.2187,1.8913,1.7403,2.0554
1.2473,1.8745,1.7242,2.0379
1.2765,1.8751,1.7363,2.0251
1.3063,1.8887,1.7626,2.0238
1.3369,1.9081,1.7833,2.0417
1.3682,1.9279,1.7905,2.0759
1.4003,1.9472,1.7916,2.1162
1.433,1.9686,1.7944,2.1597
1.4666,1.9957,1.7996,2.2132
1.5009,2.0305,1.8064,2.2824
1.5361,2.0715,1.8168,2.362
1.572,2.1127,1.832,2.4364
1.6088,2.1438,1.8468,2.4885
1.6465,2.155,1.852,2.5076
1.685,2.1439,1.8431,2.4938
1.7245,2.1187,1.8247,2.4601
1.7649,2.0923,1.8057,2.4244
1.8062,2.0732,1.7904,2.4007
1.8485,2.062,1.7752,2.3951
1.8917,2.0528,1.7524,2.4047
1.936,2.0377,1.7187,2.416
1.9813,2.0096,1.675,2.4111
2.0277,1.966,1.6223,2.3824
2.0752,1.9103,1.5617,2.3367
2.1238,1.8519,1.4995,2.2871
2.1735,1.8018,1.4457,2.2456
2.2244,1.767,1.4063,2.2202
2.2765,1.7465,1.3796,2.2109
2.3298,1.7322,1.3584,2.2088
2.3843,1.715,1.3349,2.2034
2.4401,1.6907,1.3057,2.1892
2.4973,1.661,1.2727,2.1677
2.5557,1.63,1.2398,2.1429
2.6155,1.5993,1.2089,2.1157
2.6768,1.5674,1.1793,2.0833
2.7395,1.5316,1.1488,2.0418
2.8036,1.4902,1.1169,1.9884
2.8692,1.4438,1.0837,1.9235
2.9364,1.3936,1.0481,1.853
3.0051,1.3409,1.0091,1.7818
3.0755,1.2869,0.9679,1.7112
3.1475,1.2341,0.9268,1.6432
3.2212,1.1858,0.8885,1.5826
3.2966,1.1461,0.8562,1.534
3.3738,1.117,0.8321,1.4994
3.4528,1.0978,0.8157,1.4774
3.5336,1.0851,0.8045,1.4636
3.6163,1.0751,0.7954,1.4531
3.701,1.0653,0.7858,1.4443
3.7876,1.056,0.7743,1.44
3.8763,1.0491,0.7617,1.4449
3.967,1.0459,0.7498,1.4589
4.0599,1.0456,0.7404,1.4766
4.155,1.0467,0.7342,1.4921
4.2522,1.0491,0.7321,1.5034
4.3518,1.0545,0.7354,1.512
4.4537,1.0645,0.7453,1.5204
4.5579,1.0791,0.7616,1.5291
4.6647,1.0961,0.7823,1.5358
4.7739,1.1117,0.8048,1.5356
4.8856,1.1229,0.8269,1.525
5.0,1.1291,0.8469,1.5052
