# hvsrpy output version 0.5.2
# File Name (),NA
# Method (),geometric-mean
# Azimuth (),0
# Window Length (s),2000.0
# Total Number of Windows (),43
# Frequency Domain Window Rejection Performed (),True
# Lower frequency limit for peaks (Hz),0.005
# Upper frequency limit for peaks (Hz),2.0
# Number of Standard Deviations Used for Rejection () [n],2
# Number of Accepted Windows (),35
# Number of Rejected Windows (),8
# Distribution of f0 (),lognormal
# Median f0 (Hz) [LMf0],0.0125
# Lognormal standard deviation f0 () [SigmaLNf0],0.2514
# 68 % Confidence Interval f0 (Hz),0.0097,to,0.0161
# Median T0 (s) [LMT0],79.8059
# Lognormal standard deviation T0 () [SigmaLNT0],0.2514
# 68 % Confidence Interval T0 (s),62.0653,to,102.6174
# Median Curve Distribution (),lognormal
# Median Curve Peak Frequency (Hz) [f0mc],0.0135
# Median Curve Peak Amplitude (),4.0518
# Frequency (Hz),Median Curve,1 STD Below Median Curve,1 STD Above Median Curve
0.005,1.6374,0.9074,2.9547
0.0052,1.5282,0.9247,2.5255
0.0053,1.4031,0.845,2.3299
0.0055,1.3409,0.7307,2.4608
0.0056,1.3375,0.7393,2.4199
0.0058,1.3771,0.7937,2.3892
0.006,1.4486,0.8352,2.5124
0.0062,1.5402,0.9312,2.5473
0.0064,1.6384,1.0467,2.5647
0.0066,1.6864,1.0991,2.5874
0.0068,1.6382,1.0727,2.5018
0.007,1.5587,1.0111,2.4029
0.0072,1.5212,0.9722,2.3803
0.0074,1.5502,0.9788,2.4552
0.0076,1.6262,1.0197,2.5935
0.0079,1.7094,1.0563,2.7663
0.0081,1.7887,1.1025,2.9019
0.0083,1.9018,1.1638,3.1079
0.0086,2.0791,1.2248,3.5295
0.0089,2.3152,1.272,4.214
0.0091,2.5474,1.3076,4.9627
0.0094,2.7244,1.3276,5.5905
0.0097,2.8644,1.3677,5.9991
0.01,3.0225,1.4371,6.3568
0.0103,3.2042,1.5392,6.6703
0.0106,3.3722,1.6504,6.8902
0.0109,3.4895,1.749,6.9622
0.0113,3.5783,1.8417,6.9524
0.0116,3.6977,1.9088,7.1631
0.012,3.8409,1.9475,7.5752
0.0123,3.9407,1.9598,7.9241
0.0127,3.983,1.937,8.1902
0.0131,4.0221,1.9042,8.4958
0.0135,4.0518,1.8676,8.7905
0.0139,4.0281,1.7843,9.0936
0.0143,3.9693,1.6832,9.3605
0.0148,3.9202,1.6137,9.5235
0.0152,3.9092,1.5942,9.5858
0.0157,3.9132,1.6173,9.4682
0.0162,3.8601,1.6619,8.9655
0.0167,3.692,1.6653,8.185
0.0172,3.4468,1.5955,7.4462
0.0177,3.2236,1.5012,6.9223
0.0182,3.0834,1.4315,6.6417
0.0188,3.0427,1.4079,6.5757
0.0194,3.0695,1.4314,6.5826
0.02,3.0846,1.4637,6.5005
0.0206,3.0251,1.4584,6.2745
0.0212,2.895,1.4162,5.9177
0.0219,2.7579,1.3745,5.5337
0.0225,2.6523,1.3357,5.2668
0.0232,2.5516,1.2653,5.1458
0.0239,2.452,1.1751,5.1164
0.0247,2.4136,1.1199,5.2016
0.0254,2.465,1.1247,5.4025
0.0262,2.5482,1.1644,5.5767
0.027,2.5795,1.2,5.5448
0.0278,2.5295,1.2051,5.3092
0.0287,2.4288,1.1714,5.0357
0.0295,2.3269,1.1184,4.8415
0.0304,2.2529,1.0809,4.696
0.0314,2.1997,1.0755,4.4991
0.0323,2.1492,1.09,4.2376
0.0333,2.0977,1.1011,3.9967
0.0343,2.041,1.0931,3.8111
0.0354,1.9805,1.0649,3.6834
0.0365,1.9292,1.0314,3.6086
0.0376,1.8933,1.0155,3.5298
0.0387,1.8743,1.0258,3.4244
0.0399,1.879,1.0534,3.3516
0.0411,1.9043,1.0842,3.3448
0.0424,1.9301,1.098,3.3928
0.0437,1.9372,1.0853,3.4576
0.045,1.9247,1.0638,3.4824
0.0464,1.9015,1.0497,3.4445
0.0478,1.8713,1.0399,3.3673
0.0493,1.8375,1.0306,3.2763
0.0508,1.8055,1.0264,3.1759
0.0523,1.7784,1.0281,3.0762
0.0539,1.759,1.0368,2.9841
0.0556,1.7474,1.0582,2.8857
0.0573,1.7378,1.0797,2.797
0.059,1.7231,1.0796,2.7499
0.0608,1.7017,1.0567,2.7402
0.0627,1.6758,1.0228,2.7455
0.0646,1.6461,0.9934,2.7277
0.0666,1.6181,0.9854,2.6569
0.0686,1.6046,1.006,2.5593
0.0707,1.617,1.0548,2.4788
0.0729,1.6499,1.1156,2.44
0.0751,1.6714,1.1545,2.4197
0.0774,1.646,1.1505,2.3547
0.0798,1.5753,1.1127,2.2301
0.0822,1.4921,1.0674,2.0858
0.0847,1.4211,1.0321,1.9566
0.0873,1.3698,1.0078,1.8619
0.09,1.3375,0.9974,1.7936
0.0927,1.3171,1.0057,1.7248
0.0956,1.2978,1.0283,1.6379
0.0985,1.2712,1.0492,1.5402
0.1015,1.2381,1.0531,1.4556
0.1046,1.2057,1.0421,1.3951
0.1078,1.1772,1.035,1.339
0.1111,1.1528,1.0383,1.2798
0.1145,1.138,1.0398,1.2456
0.118,1.1404,1.0417,1.2484
0.1216,1.1581,1.052,1.2749
0.1253,1.1768,1.0635,1.3022
0.1292,1.183,1.0673,1.3113
0.1331,1.1769,1.0628,1.3032
0.1372,1.1702,1.0589,1.2931
0.1414,1.1738,1.0682,1.2898
0.1457,1.1885,1.0895,1.2964
0.1501,1.2066,1.1093,1.3125
0.1547,1.2224,1.1274,1.3255
0.1595,1.2413,1.1473,1.3431
0.1643,1.2732,1.1742,1.3806
0.1694,1.3175,1.219,1.4238
0.1745,1.3596,1.2626,1.464
0.1799,1.3839,1.2771,1.4997
0.1854,1.3876,1.2712,1.5146
0.191,1.3789,1.2656,1.5025
0.1969,1.3699,1.2657,1.4826
0.2029,1.3726,1.271,1.4823
0.2091,1.3934,1.2898,1.5052
0.2155,1.427,1.325,1.5369
0.2221,1.4624,1.3651,1.5666
0.2289,1.4939,1.3952,1.5997
0.2359,1.5245,1.4146,1.643
0.2431,1.558,1.4397,1.6859
0.2505,1.598,1.4798,1.7256
0.2582,1.6539,1.5399,1.7763
0.266,1.7319,1.6224,1.8488
0.2742,1.82,1.7029,1.9453
0.2826,1.8903,1.7601,2.03
0.2912,1.9258,1.797,2.0638
0.3001,1.9389,1.817,2.0689
0.3093,1.9547,1.8333,2.0841
0.3187,1.986,1.8651,2.1147
0.3285,2.0277,1.9076,2.1553
0.3385,2.0654,1.9428,2.1957
0.3489,2.0869,1.9636,2.218
0.3595,2.093,1.9721,2.2212
0.3705,2.1016,1.9838,2.2264
0.3818,2.1337,2.0187,2.2553
0.3935,2.1934,2.0771,2.3161
0.4055,2.2622,2.1418,2.3894
0.4179,2.3143,2.1953,2.4397
0.4307,2.3359,2.2254,2.4518
0.4439,2.3278,2.2243,2.4362
0.4574,2.2884,2.1848,2.3968
0.4714,2.2099,2.1044,2.3207
0.4858,2.0983,1.9957,2.2061
0.5007,1.9819,1.8856,2.083
0.516,1.8909,1.7978,1.9887
0.5317,1.8343,1.7439,1.9294
0.548,1.8008,1.7149,1.8909
0.5647,1.7763,1.6884,1.8687
0.582,1.7537,1.6616,1.8509
0.5998,1.7305,1.6409,1.8249
0.6181,1.7075,1.6202,1.7996
0.637,1.6922,1.6016,1.788
0.6565,1.6977,1.6031,1.7979
0.6766,1.7343,1.6343,1.8403
0.6972,1.7987,1.6934,1.9106
0.7185,1.8749,1.7693,1.9868
0.7405,1.9461,1.8445,2.0533
0.7631,2.0037,1.9072,2.105
0.7865,2.0413,1.949,2.1378
0.8105,2.0466,1.9596,2.1374
0.8353,2.0151,1.9336,2.1
0.8608,1.9683,1.8891,2.0508
0.8871,1.9424,1.8605,2.0279
0.9142,1.96,1.8678,2.0568
0.9422,2.0169,1.9105,2.1293
0.971,2.089,1.9698,2.2155
1.0007,2.1512,2.0161,2.2954
1.0313,2.1876,2.0323,2.3547
1.0628,2.191,2.0206,2.3758
1.0953,2.1636,1.9888,2.3537
1.1287,2.1127,1.9434,2.2967
1.1632,2.0453,1.8801,2.2249
1.1988,1.9719,1.7961,2.1649
1.2354,1.9107,1.7102,2.1347
1.2732,1.8759,1.648,2.1352
1.3121,1.864,1.62,2.1447
1.3522,1.8594,1.6183,2.1363
1.3935,1.8522,1.6233,2.1133
1.4361,1.845,1.613,2.1104
1.48,1.8463,1.5871,2.1477
1.5253,1.8649,1.5745,2.2089
1.5719,1.9041,1.5937,2.275
1.6199,1.9498,1.6284,2.3345
1.6695,1.9741,1.6458,2.3679
1.7205,1.9632,1.6314,2.3626
1.7731,1.9332,1.5995,2.3366
1.8273,1.9117,1.5737,2.3222
1.8831,1.9128,1.5645,2.3385
1.9407,1.9287,1.5641,2.3784
2.0,1.9352,1.5535,2.4107
