# hvsrpy output version 0.5.2
# File Name (),NA
# Method (),geometric-mean
# Azimuth (),0
# Window Length (s),1200.0
# Total Number of Windows (),72
# Frequency Domain Window Rejection Performed (),True
# Lower frequency limit for peaks (Hz),0.1
# Upper frequency limit for peaks (Hz),5.0
# Number of Standard Deviations Used for Rejection () [n],2
# Number of Accepted Windows (),72
# Number of Rejected Windows (),0
# Distribution of f0 (),lognormal
# Median f0 (Hz) [LMf0],0.9256
# Lognormal standard deviation f0 () [SigmaLNf0],0.7113
# 68 % Confidence Interval f0 (Hz),0.4545,to,1.885
# Median T0 (s) [LMT0],1.0804
# Lognormal standard deviation T0 () [SigmaLNT0],0.7113
# 68 % Confidence Interval T0 (s),0.5305,to,2.2003
# Median Curve Distribution (),lognormal
# Median Curve Peak Frequency (Hz) [f0mc],0.4302
# Median Curve Peak Amplitude (),2.3058
# Frequency (Hz),Median Curve,1 STD Below Median Curve,1 STD Above Median Curve
0.05,1.2124,0.8668,1.6958
0.0512,1.2393,0.9021,1.7026
0.0524,1.2749,0.9481,1.7143
0.0536,1.3151,0.9992,1.7308
0.0548,1.3576,1.0449,1.7638
0.0561,1.4,1.084,1.8081
0.0574,1.4428,1.123,1.8535
0.0588,1.4892,1.1656,1.9026
0.0602,1.5392,1.207,1.9629
0.0616,1.5852,1.2457,2.0172
0.063,1.6172,1.2855,2.0345
0.0645,1.6321,1.3233,2.013
0.066,1.635,1.3461,1.9858
0.0675,1.6338,1.3471,1.9815
0.0691,1.6335,1.3418,1.9886
0.0707,1.632,1.3454,1.9797
0.0724,1.6219,1.3507,1.9476
0.0741,1.5968,1.3401,1.9026
0.0758,1.5559,1.3122,1.8448
0.0776,1.5048,1.2756,1.775
0.0794,1.4516,1.2303,1.7127
0.0813,1.4017,1.1745,1.6727
0.0832,1.3569,1.1164,1.6492
0.0851,1.3181,1.0682,1.6265
0.0871,1.2853,1.0374,1.5924
0.0892,1.257,1.0226,1.5452
0.0913,1.2303,1.0161,1.4898
0.0934,1.1999,1.0066,1.4303
0.0956,1.1594,0.9844,1.3655
0.0978,1.1075,0.9467,1.2956
0.1001,1.0527,0.895,1.2382
0.1025,1.0066,0.8453,1.1987
0.1049,0.974,0.8158,1.1627
0.1073,0.9533,0.8041,1.1301
0.1098,0.9417,0.7971,1.1126
0.1124,0.9377,0.7925,1.1095
0.115,0.9404,0.7957,1.1113
0.1177,0.9491,0.8072,1.1159
0.1205,0.9631,0.8239,1.1259
0.1233,0.982,0.8444,1.1419
0.1262,1.0042,0.8679,1.162
0.1291,1.0271,0.8915,1.1835
0.1322,1.0467,0.9112,1.2025
0.1352,1.0599,0.9252,1.2143
0.1384,1.0672,0.9354,1.2176
0.1417,1.0726,0.9452,1.2171
0.145,1.0806,0.9571,1.2201
0.1484,1.0939,0.9715,1.2316
0.1518,1.1116,0.989,1.2494
0.1554,1.1315,1.0108,1.2667
0.159,1.1529,1.0369,1.2819
0.1628,1.1775,1.0652,1.3017
0.1666,1.207,1.0935,1.3321
0.1705,1.2386,1.1203,1.3693
0.1745,1.2653,1.1413,1.4027
0.1785,1.2806,1.1519,1.4238
0.1827,1.2844,1.1542,1.4292
0.187,1.2831,1.1573,1.4224
0.1914,1.2849,1.1664,1.4154
0.1959,1.2951,1.1786,1.4232
0.2004,1.3157,1.193,1.451
0.2051,1.3461,1.215,1.4914
0.2099,1.3845,1.2477,1.5362
0.2149,1.4271,1.288,1.5813
0.2199,1.4695,1.33,1.6236
0.225,1.507,1.369,1.6588
0.2303,1.5369,1.4025,1.6843
0.2357,1.5597,1.429,1.7024
0.2412,1.5781,1.4487,1.7192
0.2469,1.5969,1.4655,1.74
0.2526,1.6219,1.4859,1.7703
0.2585,1.6586,1.516,1.8147
0.2646,1.7083,1.5579,1.8732
0.2708,1.7646,1.6073,1.9372
0.2771,1.8158,1.6546,1.9927
0.2836,1.852,1.6903,2.0292
0.2903,1.8725,1.7127,2.0472
0.2971,1.8863,1.7302,2.0566
0.304,1.9051,1.7526,2.0709
0.3111,1.9349,1.783,2.0999
0.3184,1.9748,1.8198,2.143
0.3259,2.0193,1.8584,2.1941
0.3335,2.0609,1.8925,2.2443
0.3413,2.0909,1.918,2.2794
0.3493,2.1027,1.931,2.2896
0.3575,2.0975,1.9283,2.2815
0.3658,2.0858,1.916,2.2707
0.3744,2.0826,1.9108,2.2698
0.3832,2.099,1.9272,2.2861
0.3921,2.1382,1.9691,2.3219
0.4013,2.1936,2.0277,2.3731
0.4107,2.2503,2.0845,2.4293
0.4203,2.2914,2.1224,2.4739
0.4302,2.3058,2.1362,2.4888
0.4402,2.2932,2.1284,2.4708
0.4506,2.2612,2.0992,2.4357
0.4611,2.2166,2.0478,2.3993
0.4719,2.1619,1.9796,2.3609
0.4829,2.0981,1.9064,2.3091
0.4942,2.0305,1.8421,2.2382
0.5058,1.9681,1.7941,2.1589
0.5177,1.9182,1.7603,2.0903
0.5298,1.8816,1.736,2.0393
0.5422,1.852,1.7163,1.9984
0.5549,1.8222,1.6942,1.9599
0.5679,1.7884,1.6641,1.9221
0.5812,1.7515,1.6255,1.8873
0.5948,1.7143,1.5816,1.8581
0.6087,1.68,1.5399,1.8327
0.6229,1.6519,1.5094,1.8079
0.6375,1.6342,1.4954,1.786
0.6525,1.632,1.4992,1.7765
0.6677,1.6502,1.5213,1.7899
0.6834,1.6915,1.5638,1.8296
0.6994,1.7534,1.6263,1.8905
0.7157,1.8271,1.701,1.9627
0.7325,1.8997,1.773,2.0355
0.7496,1.9597,1.8286,2.1002
0.7672,2.0013,1.8642,2.1484
0.7851,2.0243,1.8868,2.1719
0.8035,2.0308,1.9012,2.1691
0.8223,2.0225,1.9038,2.1486
0.8416,2.0032,1.892,2.1211
0.8613,1.9814,1.8743,2.0948
0.8815,1.9692,1.8636,2.0808
0.9021,1.9766,1.8689,2.0905
0.9232,2.0068,1.8952,2.1249
0.9448,2.0549,1.9419,2.1745
0.9669,2.1112,1.9994,2.2293
0.9896,2.1653,2.0538,2.2828
1.0128,2.2088,2.0938,2.33
1.0365,2.236,2.1124,2.3668
1.0607,2.2449,2.108,2.3908
1.0856,2.2366,2.087,2.3969
1.111,2.2128,2.059,2.3782
1.137,2.1754,2.0252,2.3368
1.1636,2.1268,1.978,2.2868
1.1908,2.073,1.9191,2.2392
1.2187,2.0234,1.8628,2.1978
1.2473,1.9875,1.8231,2.1668
1.2765,1.9703,1.8067,2.1487
1.3063,1.9705,1.8113,2.1437
1.3369,1.9829,1.8258,2.1535
1.3682,2.0021,1.8367,2.1824
1.4003,2.0245,1.8394,2.2282
1.433,2.0472,1.8376,2.2807
1.4666,2.0682,1.8349,2.3311
1.5009,2.0876,1.8336,2.3769
1.5361,2.1081,1.8373,2.4188
1.572,2.1305,1.85,2.4536
1.6088,2.151,1.8717,2.472
1.6465,2.1618,1.8954,2.4656
1.685,2.1567,1.9102,2.4351
1.7245,2.1377,1.9102,2.3924
1.7649,2.1141,1.8983,2.3545
1.8062,2.0972,1.8845,2.3339
1.8485,2.0942,1.879,2.334
1.8917,2.1054,1.8855,2.3508
1.936,2.1229,1.8976,2.3749
1.9813,2.133,1.9013,2.3928
2.0277,2.1226,1.8823,2.3937
2.0752,2.0874,1.8351,2.3743
2.1238,2.035,1.7702,2.3393
2.1735,1.9801,1.7061,2.2982
2.2244,1.9348,1.6561,2.2604
2.2765,1.9014,1.6207,2.2307
2.3298,1.8739,1.5915,2.2063
2.3843,1.8445,1.5617,2.1785
2.4401,1.8096,1.5287,2.1421
2.4973,1.7718,1.4918,2.1044
2.5557,1.7359,1.4526,2.0744
2.6155,1.7041,1.4151,2.0522
2.6768,1.6749,1.3813,2.0309
2.7395,1.644,1.3493,2.003
2.8036,1.6075,1.3149,1.9652
2.8692,1.5645,1.2753,1.9193
2.9364,1.5164,1.2309,1.8682
3.0051,1.4649,1.1846,1.8116
3.0755,1.4103,1.1381,1.7476
3.1475,1.3527,1.0905,1.6781
3.2212,1.2952,1.0416,1.6107
3.2966,1.2442,0.9952,1.5556
3.3738,1.2061,0.9581,1.5184
3.4528,1.1831,0.934,1.4987
3.5336,1.1722,0.9219,1.4905
3.6163,1.1684,0.9181,1.4869
3.701,1.1686,0.9191,1.4858
3.7876,1.1733,0.9234,1.4907
3.8763,1.1839,0.931,1.5055
3.967,1.1989,0.9411,1.5273
4.0599,1.2135,0.9515,1.5477
4.155,1.223,0.9589,1.56
4.2522,1.2263,0.9616,1.564
4.3518,1.2267,0.962,1.5641
4.4537,1.2286,0.9647,1.5647
4.5579,1.2353,0.9734,1.5677
4.6647,1.2479,0.9897,1.5734
4.7739,1.2656,1.0128,1.5816
4.8856,1.287,1.0409,1.5912
5.0,1.3096,1.0727,1.5989
