# hvsrpy output version 0.5.2
# File Name (),NA
# Method (),geometric-mean
# Azimuth (),0
# Window Length (s),1200.0
# Total Number of Windows (),72
# Frequency Domain Window Rejection Performed (),True
# Lower frequency limit for peaks (Hz),0.1
# Upper frequency limit for peaks (Hz),5.0
# Number of Standard Deviations Used for Rejection () [n],2
# Number of Accepted Windows (),71
# Number of Rejected Windows (),1
# Distribution of f0 (),lognormal
# Median f0 (Hz) [LMf0],1.0429
# Lognormal standard deviation f0 () [SigmaLNf0],0.6838
# 68 % Confidence Interval f0 (Hz),0.5263,to,2.0664
# Median T0 (s) [LMT0],0.9589
# Lognormal standard deviation T0 () [SigmaLNT0],0.6838
# 68 % Confidence Interval T0 (s),0.4839,to,1.8999
# Median Curve Distribution (),lognormal
# Median Curve Peak Frequency (Hz) [f0mc],0.4302
# Median Curve Peak Amplitude (),2.307
# Frequency (Hz),Median Curve,1 STD Below Median Curve,1 STD Above Median Curve
0.05,1.1855,0.8378,1.6776
0.0512,1.1806,0.8394,1.6604
0.0524,1.1849,0.8517,1.6483
0.0536,1.201,0.8726,1.653
0.0548,1.2364,0.9096,1.6804
0.0561,1.298,0.9735,1.7308
0.0574,1.3815,1.0628,1.7957
0.0588,1.465,1.1514,1.8641
0.0602,1.5209,1.2057,1.9184
0.0616,1.5332,1.2188,1.9288
0.063,1.5077,1.206,1.8849
0.0645,1.4636,1.1788,1.8172
0.066,1.4184,1.141,1.7632
0.0675,1.3797,1.1023,1.7269
0.0691,1.3484,1.0736,1.6936
0.0707,1.3249,1.0571,1.6607
0.0724,1.3101,1.0497,1.6351
0.0741,1.3028,1.05,1.6165
0.0758,1.2985,1.0576,1.5945
0.0776,1.2915,1.0662,1.5644
0.0794,1.2792,1.0668,1.534
0.0813,1.263,1.0577,1.5083
0.0832,1.245,1.0446,1.4839
0.0851,1.2261,1.0302,1.4594
0.0871,1.2076,1.014,1.4382
0.0892,1.1929,0.9989,1.4246
0.0913,1.1863,0.9907,1.4204
0.0934,1.1893,0.9936,1.4235
0.0956,1.1993,1.0064,1.4291
0.0978,1.21,1.0212,1.4337
0.1001,1.2133,1.0281,1.4318
0.1025,1.2028,1.0224,1.415
0.1049,1.1791,1.007,1.3807
0.1073,1.1503,0.9923,1.3334
0.1098,1.1275,0.9867,1.2885
0.1124,1.1176,0.9869,1.2657
0.115,1.1192,0.9887,1.2669
0.1177,1.1266,0.991,1.2809
0.1205,1.1357,0.9929,1.2989
0.1233,1.1442,0.9947,1.3161
0.1262,1.1505,0.9968,1.328
0.1291,1.1533,1.0001,1.3301
0.1322,1.1514,1.0038,1.3208
0.1352,1.1446,1.0062,1.3021
0.1384,1.1334,1.005,1.2782
0.1417,1.1185,0.9981,1.2534
0.145,1.1013,0.9854,1.2309
0.1484,1.0858,0.9703,1.215
0.1518,1.078,0.9595,1.2111
0.1554,1.0841,0.9618,1.2219
0.159,1.1066,0.9825,1.2464
0.1628,1.1426,1.0193,1.2807
0.1666,1.1841,1.0622,1.3199
0.1705,1.2217,1.0987,1.3585
0.1745,1.2491,1.1227,1.3898
0.1785,1.266,1.1377,1.4087
0.1827,1.2763,1.1499,1.4165
0.187,1.284,1.1603,1.4209
0.1914,1.292,1.1692,1.4278
0.1959,1.303,1.1811,1.4374
0.2004,1.32,1.201,1.4508
0.2051,1.3453,1.2304,1.4709
0.2099,1.3785,1.2674,1.4993
0.2149,1.4167,1.3082,1.5342
0.2199,1.4559,1.3466,1.574
0.225,1.4926,1.3763,1.6189
0.2303,1.5254,1.3964,1.6663
0.2357,1.5538,1.413,1.7087
0.2412,1.5787,1.4332,1.739
0.2469,1.6026,1.4616,1.7571
0.2526,1.6301,1.4994,1.7723
0.2585,1.6669,1.5446,1.7989
0.2646,1.7144,1.5918,1.8466
0.2708,1.7675,1.6347,1.9112
0.2771,1.817,1.6698,1.9771
0.2836,1.8564,1.6957,2.0324
0.2903,1.8862,1.7154,2.0741
0.2971,1.9117,1.7363,2.1048
0.304,1.9373,1.7616,2.1306
0.3111,1.9639,1.7885,2.1564
0.3184,1.9889,1.8145,2.1802
0.3259,2.0093,1.838,2.1965
0.3335,2.0225,1.8553,2.2047
0.3413,2.0273,1.8608,2.2087
0.3493,2.0249,1.8546,2.2108
0.3575,2.0196,1.8464,2.209
0.3658,2.0183,1.8471,2.2054
0.3744,2.0285,1.8626,2.2093
0.3832,2.0557,1.8942,2.2311
0.3921,2.1017,1.9413,2.2752
0.4013,2.1622,2.0004,2.3372
0.4107,2.2267,2.0636,2.4026
0.4203,2.2796,2.1187,2.4527
0.4302,2.307,2.1505,2.475
0.4402,2.3036,2.1485,2.47
0.4506,2.2732,2.1174,2.4405
0.4611,2.2234,2.0701,2.388
0.4719,2.1601,2.0147,2.3159
0.4829,2.0881,1.9541,2.2313
0.4942,2.0148,1.8925,2.1452
0.5058,1.9501,1.838,2.0691
0.5177,1.9019,1.7979,2.0119
0.5298,1.8713,1.7722,1.9759
0.5422,1.8513,1.7538,1.9543
0.5549,1.8318,1.7345,1.9347
0.5679,1.8063,1.7091,1.909
0.5812,1.7742,1.6773,1.8766
0.5948,1.7386,1.6441,1.8385
0.6087,1.703,1.6134,1.7976
0.6229,1.6705,1.5841,1.7615
0.6375,1.6458,1.5571,1.7396
0.6525,1.6362,1.5417,1.7364
0.6677,1.6487,1.5499,1.7538
0.6834,1.686,1.5847,1.7938
0.6994,1.7428,1.637,1.8554
0.7157,1.8067,1.6933,1.9277
0.7325,1.8643,1.7438,1.9931
0.7496,1.9085,1.7837,2.042
0.7672,1.9399,1.8131,2.0755
0.7851,1.9614,1.8362,2.0951
0.8035,1.9726,1.8547,2.098
0.8223,1.9699,1.863,2.0831
0.8416,1.9526,1.8551,2.0552
0.8613,1.9278,1.8347,2.0256
0.8815,1.9094,1.8143,2.0094
0.9021,1.9112,1.8084,2.02
0.9232,1.941,1.828,2.0609
0.9448,1.9964,1.8762,2.1242
0.9669,2.0662,1.9451,2.1947
0.9896,2.135,2.019,2.2578
1.0128,2.1904,2.0806,2.3061
1.0365,2.2272,2.1203,2.3394
1.0607,2.2468,2.1392,2.3598
1.0856,2.2528,2.1414,2.3699
1.111,2.2451,2.1258,2.371
1.137,2.2201,2.0876,2.361
1.1636,2.1762,2.0278,2.3356
1.1908,2.1203,1.9584,2.2955
1.2187,2.066,1.8967,2.2504
1.2473,2.0263,1.855,2.2134
1.2765,2.0061,1.8343,2.1939
1.3063,2.0018,1.827,2.1934
1.3369,2.007,1.8253,2.2068
1.3682,2.0179,1.827,2.2288
1.4003,2.0352,1.8347,2.2577
1.433,2.0608,1.8498,2.2959
1.4666,2.0937,1.8694,2.345
1.5009,2.1302,1.8914,2.3992
1.5361,2.1662,1.9176,2.4471
1.572,2.1987,1.9489,2.4805
1.6088,2.2246,1.9806,2.4986
1.6465,2.2402,2.0013,2.5076
1.685,2.2428,2.0007,2.5142
1.7245,2.2348,1.9808,2.5214
1.7649,2.2233,1.9534,2.5305
1.8062,2.2154,1.93,2.543
1.8485,2.2127,1.9151,2.5566
1.8917,2.2103,1.9058,2.5633
1.936,2.2,1.894,2.5554
1.9813,2.1752,1.8701,2.5301
2.0277,2.134,1.8296,2.4889
2.0752,2.0801,1.775,2.4377
2.1238,2.0217,1.7125,2.3867
2.1735,1.9674,1.6503,2.3455
2.2244,1.9235,1.598,2.3153
2.2765,1.8909,1.5626,2.2882
2.3298,1.8657,1.5431,2.2559
2.3843,1.8417,1.5311,2.2154
2.4401,1.8139,1.5176,2.1682
2.4973,1.7805,1.4984,2.1157
2.5557,1.7413,1.4732,2.0583
2.6155,1.6959,1.4404,1.9968
2.6768,1.6428,1.397,1.9319
2.7395,1.5817,1.3423,1.8637
2.8036,1.5149,1.2793,1.794
2.8692,1.448,1.2132,1.7281
2.9364,1.3856,1.1492,1.6706
3.0051,1.3286,1.0899,1.6196
3.0755,1.2742,1.0349,1.5688
3.1475,1.2192,0.9822,1.5133
3.2212,1.1637,0.9312,1.4543
3.2966,1.1118,0.8841,1.3981
3.3738,1.0676,0.8445,1.3497
3.4528,1.0327,0.8141,1.3099
3.5336,1.0052,0.7912,1.2771
3.6163,0.9821,0.7719,1.2495
3.701,0.9605,0.7525,1.2261
3.7876,0.9397,0.7318,1.2067
3.8763,0.9202,0.7108,1.1912
3.967,0.9031,0.6918,1.179
4.0599,0.8897,0.6769,1.1693
4.155,0.8808,0.6673,1.1625
4.2522,0.8773,0.6633,1.1603
4.3518,0.8798,0.665,1.1641
4.4537,0.8879,0.6719,1.1733
4.5579,0.8997,0.6824,1.1861
4.6647,0.9129,0.6939,1.2011
4.7739,0.9257,0.7043,1.2166
4.8856,0.9368,0.7132,1.2305
5.0,0.9463,0.7209,1.2423
