# hvsrpy output version 0.5.2
# File Name (),NA
# Method (),geometric-mean
# Azimuth (),0
# Window Length (s),1200.0
# Total Number of Windows (),72
# Frequency Domain Window Rejection Performed (),True
# Lower frequency limit for peaks (Hz),0.1
# Upper frequency limit for peaks (Hz),10.0
# Number of Standard Deviations Used for Rejection () [n],2
# Number of Accepted Windows (),48
# Number of Rejected Windows (),24
# Distribution of f0 (),lognormal
# Median f0 (Hz) [LMf0],0.1453
# Lognormal standard deviation f0 () [SigmaLNf0],0.2624
# 68 % Confidence Interval f0 (Hz),0.1117,to,0.1889
# Median T0 (s) [LMT0],6.8832
# Lognormal standard deviation T0 () [SigmaLNT0],0.2624
# 68 % Confidence Interval T0 (s),5.2943,to,8.9489
# Median Curve Distribution (),lognormal
# Median Curve Peak Frequency (Hz) [f0mc],0.1054
# Median Curve Peak Amplitude (),1.0061
# Frequency (Hz),Median Curve,1 STD Below Median Curve,1 STD Above Median Curve
0.05,0.9966,0.6545,1.5174
0.0513,0.9815,0.66,1.4598
0.0527,0.9691,0.6663,1.4096
0.0542,0.9633,0.66,1.406
0.0556,0.9623,0.6426,1.4411
0.0571,0.9615,0.6228,1.4843
0.0587,0.9597,0.6087,1.5132
0.0602,0.9592,0.6052,1.5202
0.0619,0.9608,0.6101,1.5129
0.0635,0.964,0.6184,1.5027
0.0653,0.9702,0.6273,1.5007
0.067,0.9792,0.6363,1.5067
0.0688,0.9864,0.6438,1.5115
0.0707,0.9872,0.6443,1.5126
0.0726,0.9799,0.6359,1.51
0.0745,0.9683,0.624,1.5024
0.0766,0.9591,0.614,1.4983
0.0786,0.9573,0.6088,1.5051
0.0807,0.9619,0.6115,1.5131
0.0829,0.969,0.6216,1.5104
0.0852,0.9751,0.6356,1.4959
0.0875,0.9795,0.651,1.4738
0.0898,0.9833,0.6652,1.4536
0.0922,0.988,0.6751,1.4459
0.0947,0.9929,0.6818,1.4459
0.0973,0.9969,0.6911,1.438
0.0999,1.0004,0.7047,1.4201
0.1026,1.0038,0.7158,1.4076
0.1054,1.0061,0.7158,1.4143
0.1082,1.0047,0.7049,1.4321
0.1111,0.9972,0.6909,1.4394
0.1141,0.9852,0.6796,1.4282
0.1172,0.9733,0.6745,1.4047
0.1204,0.9663,0.6775,1.3782
0.1236,0.9671,0.6872,1.361
0.127,0.9757,0.6997,1.3606
0.1304,0.988,0.7145,1.3663
0.1339,0.9973,0.7342,1.3549
0.1375,0.9972,0.7575,1.3128
0.1412,0.9864,0.7773,1.2517
0.145,0.9702,0.7845,1.2
0.149,0.9568,0.7809,1.1724
0.153,0.951,0.7793,1.1605
0.1571,0.9525,0.786,1.1543
0.1613,0.958,0.794,1.1559
0.1657,0.9642,0.7941,1.1706
0.1702,0.9686,0.788,1.1906
0.1748,0.9702,0.7829,1.2024
0.1795,0.9692,0.7813,1.2024
0.1843,0.9669,0.7825,1.1946
0.1893,0.9645,0.7869,1.182
0.1944,0.9629,0.7956,1.1652
0.1996,0.9622,0.8074,1.1466
0.205,0.9618,0.8191,1.1292
0.2106,0.9609,0.8278,1.1153
0.2162,0.9587,0.8289,1.1089
0.2221,0.9534,0.8187,1.1103
0.2281,0.9426,0.8012,1.109
0.2342,0.9285,0.7863,1.0963
0.2405,0.9169,0.7807,1.0768
0.247,0.9126,0.7865,1.059
0.2537,0.9154,0.8023,1.0443
0.2605,0.9211,0.8204,1.0342
0.2676,0.926,0.8288,1.0346
0.2748,0.9282,0.8262,1.0428
0.2822,0.9284,0.8216,1.0491
0.2898,0.929,0.8211,1.0511
0.2976,0.9313,0.8256,1.0506
0.3057,0.9335,0.8306,1.0492
0.3139,0.9326,0.8307,1.047
0.3224,0.9279,0.8256,1.043
0.3311,0.9225,0.8198,1.0381
0.34,0.92,0.8181,1.0346
0.3492,0.9215,0.8227,1.0321
0.3586,0.9251,0.8316,1.0292
0.3683,0.9281,0.8397,1.0257
0.3782,0.929,0.8425,1.0245
0.3884,0.9295,0.8429,1.0249
0.3989,0.9312,0.8454,1.0258
0.4097,0.9344,0.8491,1.0283
0.4207,0.9373,0.8522,1.0309
0.4321,0.9381,0.8534,1.0311
0.4437,0.9358,0.8506,1.0295
0.4557,0.9312,0.8444,1.0268
0.468,0.9265,0.8376,1.0249
0.4806,0.9244,0.832,1.027
0.4936,0.9257,0.8306,1.0316
0.5069,0.929,0.8349,1.0338
0.5206,0.9326,0.8432,1.0316
0.5347,0.9362,0.8531,1.0273
0.5491,0.9411,0.8626,1.0266
0.5639,0.9475,0.8695,1.0325
0.5791,0.9526,0.874,1.0383
0.5947,0.9517,0.8757,1.0342
0.6108,0.9431,0.8727,1.0192
0.6273,0.9309,0.8663,1.0004
0.6442,0.9218,0.8624,0.9854
0.6616,0.9196,0.8641,0.9788
0.6794,0.9234,0.8706,0.9793
0.6978,0.9292,0.8786,0.9827
0.7166,0.9337,0.8829,0.9873
0.7359,0.9353,0.8837,0.9899
0.7558,0.9343,0.8845,0.9869
0.7762,0.9318,0.8852,0.9809
0.7971,0.9287,0.8829,0.9768
0.8186,0.9256,0.8772,0.9767
0.8407,0.9238,0.8712,0.9795
0.8634,0.9239,0.8694,0.9818
0.8867,0.925,0.8727,0.9804
0.9106,0.9252,0.8769,0.9761
0.9352,0.9238,0.878,0.972
0.9604,0.9223,0.8764,0.9706
0.9863,0.9221,0.8726,0.9745
1.0129,0.9231,0.8688,0.9808
1.0403,0.9236,0.8687,0.9821
1.0683,0.9233,0.8729,0.9766
1.0972,0.923,0.8783,0.9699
1.1268,0.9235,0.8806,0.9685
1.1572,0.9245,0.8797,0.9717
1.1884,0.925,0.8786,0.9738
1.2205,0.9246,0.8788,0.9727
1.2534,0.9241,0.8795,0.9709
1.2872,0.9244,0.8791,0.972
1.3219,0.9259,0.8787,0.9757
1.3576,0.9286,0.8812,0.9785
1.3942,0.932,0.8862,0.9802
1.4319,0.9355,0.8883,0.9852
1.4705,0.9379,0.8854,0.9935
1.5102,0.938,0.8809,0.9987
1.5509,0.9351,0.8752,0.999
1.5928,0.9297,0.8674,0.9965
1.6358,0.9239,0.8595,0.9931
1.6799,0.9193,0.8521,0.9918
1.7252,0.9167,0.8443,0.9952
1.7718,0.9153,0.8364,1.0016
1.8196,0.9143,0.8297,1.0075
1.8687,0.9137,0.8259,1.0108
1.9191,0.9139,0.8271,1.0099
1.9709,0.9151,0.8351,1.0027
2.0241,0.9166,0.8486,0.9901
2.0787,0.918,0.8633,0.9762
2.1348,0.9193,0.8752,0.9656
2.1924,0.9204,0.8822,0.9602
2.2515,0.9209,0.8832,0.9602
2.3123,0.9203,0.8774,0.9653
2.3747,0.9181,0.8655,0.974
2.4387,0.9146,0.8508,0.9832
2.5045,0.9108,0.8384,0.9896
2.5721,0.9083,0.8316,0.9921
2.6415,0.9084,0.8307,0.9932
2.7128,0.9108,0.8331,0.9959
2.786,0.9145,0.8355,1.001
2.8612,0.9178,0.8365,1.0071
2.9384,0.9201,0.8366,1.0119
3.0176,0.9215,0.8376,1.0138
3.0991,0.9224,0.841,1.0117
3.1827,0.923,0.8474,1.0053
3.2686,0.9234,0.8558,0.9962
3.3567,0.9241,0.8645,0.9878
3.4473,0.9254,0.8718,0.9822
3.5403,0.9262,0.8754,0.9798
3.6359,0.9256,0.8749,0.9793
3.734,0.924,0.873,0.978
3.8347,0.923,0.874,0.9747
3.9382,0.9237,0.8795,0.9702
4.0444,0.9257,0.8875,0.9655
4.1536,0.9272,0.894,0.9616
4.2656,0.9271,0.8962,0.959
4.3807,0.9256,0.8932,0.9592
4.4989,0.9237,0.8874,0.9615
4.6203,0.9222,0.8831,0.9631
4.745,0.9212,0.8823,0.9619
4.873,0.9208,0.8847,0.9583
5.0045,0.9209,0.8886,0.9543
5.1396,0.9216,0.8925,0.9516
5.2782,0.9226,0.8957,0.9504
5.4207,0.9231,0.8975,0.9496
5.5669,0.9226,0.8973,0.9485
5.7171,0.9213,0.896,0.9473
5.8714,0.9206,0.8954,0.9464
6.0298,0.9211,0.8964,0.9465
6.1925,0.9225,0.8981,0.9477
6.3596,0.9241,0.8994,0.9495
6.5312,0.9253,0.8997,0.9517
6.7074,0.9258,0.8993,0.9531
6.8884,0.9255,0.9001,0.9516
7.0743,0.9246,0.9026,0.9471
7.2651,0.924,0.9054,0.9431
7.4612,0.9248,0.9075,0.9425
7.6625,0.9268,0.9101,0.9438
7.8692,0.9283,0.9136,0.9433
8.0816,0.9285,0.9156,0.9415
8.2996,0.9253,0.9116,0.9393
8.5236,0.9155,0.8724,0.9608
8.7536,0.9126,0.8591,0.9694
8.9898,0.9113,0.8536,0.9729
9.2323,0.9105,0.8504,0.9749
9.4814,0.9101,0.8486,0.9761
9.7373,0.91,0.8477,0.9768
10.0,0.9099,0.8473,0.9772
