# hvsrpy output version 0.5.2
# File Name (),NA
# Method (),geometric-mean
# Azimuth (),0
# Window Length (s),1200.0
# Total Number of Windows (),72
# Frequency Domain Window Rejection Performed (),True
# Lower frequency limit for peaks (Hz),0.1
# Upper frequency limit for peaks (Hz),5.0
# Number of Standard Deviations Used for Rejection () [n],2
# Number of Accepted Windows (),58
# Number of Rejected Windows (),14
# Distribution of f0 (),lognormal
# Median f0 (Hz) [LMf0],1.2202
# Lognormal standard deviation f0 () [SigmaLNf0],0.1658
# 68 % Confidence Interval f0 (Hz),1.0337,to,1.4403
# Median T0 (s) [LMT0],0.8196
# Lognormal standard deviation T0 () [SigmaLNT0],0.1658
# 68 % Confidence Interval T0 (s),0.6943,to,0.9674
# Median Curve Distribution (),lognormal
# Median Curve Peak Frequency (Hz) [f0mc],1.2765
# Median Curve Peak Amplitude (),2.3692
# Frequency (Hz),Median Curve,1 STD Below Median Curve,1 STD Above Median Curve
0.05,2.919,2.1691,3.9281
0.0512,3.0084,2.2584,4.0076
0.0524,3.1003,2.3523,4.0862
0.0536,3.2057,2.4696,4.1612
0.0548,3.3133,2.5883,4.2414
0.0561,3.4017,2.6683,4.3367
0.0574,3.4486,2.6938,4.415
0.0588,3.4386,2.67,4.4285
0.0602,3.3763,2.6096,4.3682
0.0616,3.2865,2.5331,4.2639
0.063,3.1953,2.4634,4.1445
0.0645,3.1127,2.4131,4.015
0.066,3.0339,2.3695,3.8848
0.0675,2.9487,2.3119,3.761
0.0691,2.8464,2.2432,3.6119
0.0707,2.7206,2.1738,3.4048
0.0724,2.5715,2.0976,3.1525
0.0741,2.4087,2.0065,2.8915
0.0758,2.2504,1.9075,2.6549
0.0776,2.1129,1.8087,2.4683
0.0794,2.0003,1.7118,2.3373
0.0813,1.9055,1.6156,2.2475
0.0832,1.8192,1.5227,2.1735
0.0851,1.7342,1.4414,2.0865
0.0871,1.6482,1.3778,1.9718
0.0892,1.5644,1.3289,1.8417
0.0913,1.4873,1.2831,1.7241
0.0934,1.4189,1.2282,1.6392
0.0956,1.3592,1.1672,1.5828
0.0978,1.3101,1.1149,1.5396
0.1001,1.275,1.0812,1.5036
0.1025,1.255,1.0675,1.4755
0.1049,1.2461,1.0706,1.4504
0.1073,1.2396,1.082,1.4201
0.1098,1.2286,1.089,1.3861
0.1124,1.2142,1.0855,1.3582
0.115,1.2019,1.0767,1.3417
0.1177,1.195,1.0699,1.3346
0.1205,1.1918,1.0654,1.3331
0.1233,1.1877,1.0586,1.3324
0.1262,1.1795,1.0476,1.3281
0.1291,1.1698,1.0372,1.3194
0.1322,1.1658,1.0363,1.3116
0.1352,1.1747,1.0507,1.3133
0.1384,1.1988,1.0805,1.3301
0.1417,1.2352,1.1196,1.3628
0.145,1.277,1.1587,1.4073
0.1484,1.3168,1.1931,1.4534
0.1518,1.3499,1.2211,1.4924
0.1554,1.3749,1.2401,1.5243
0.159,1.3918,1.249,1.5509
0.1628,1.401,1.2497,1.5706
0.1666,1.4013,1.244,1.5784
0.1705,1.391,1.2311,1.5716
0.1745,1.3697,1.2074,1.5539
0.1785,1.3395,1.1739,1.5284
0.1827,1.3045,1.1385,1.4946
0.187,1.2705,1.1101,1.4541
0.1914,1.2437,1.0936,1.4145
0.1959,1.2287,1.0908,1.3841
0.2004,1.2274,1.1015,1.3676
0.2051,1.2386,1.1209,1.3687
0.2099,1.2588,1.1433,1.3861
0.2149,1.2829,1.1665,1.4109
0.2199,1.3055,1.188,1.4346
0.225,1.3218,1.2028,1.4527
0.2303,1.3288,1.2078,1.462
0.2357,1.3266,1.2057,1.4596
0.2412,1.3189,1.2026,1.4465
0.2469,1.3124,1.2029,1.4319
0.2526,1.3131,1.2082,1.4271
0.2585,1.3241,1.2195,1.4376
0.2646,1.3457,1.2395,1.461
0.2708,1.3771,1.27,1.4932
0.2771,1.4167,1.3088,1.5335
0.2836,1.4628,1.3518,1.583
0.2903,1.5133,1.3972,1.6391
0.2971,1.5656,1.4461,1.6949
0.304,1.6162,1.4957,1.7464
0.3111,1.6616,1.5394,1.7935
0.3184,1.6981,1.5711,1.8353
0.3259,1.722,1.5884,1.8668
0.3335,1.731,1.5908,1.8835
0.3413,1.7267,1.5803,1.8867
0.3493,1.7152,1.5647,1.8801
0.3575,1.7039,1.5545,1.8676
0.3658,1.6989,1.555,1.8562
0.3744,1.7032,1.5646,1.8541
0.3832,1.7158,1.5803,1.8628
0.3921,1.7341,1.6025,1.8764
0.4013,1.756,1.6309,1.8908
0.4107,1.7815,1.6616,1.9101
0.4203,1.8099,1.6908,1.9374
0.4302,1.837,1.7159,1.9668
0.4402,1.8558,1.7324,1.9879
0.4506,1.8602,1.7362,1.9931
0.4611,1.85,1.7271,1.9817
0.4719,1.8307,1.7087,1.9615
0.4829,1.812,1.6895,1.9433
0.4942,1.8027,1.6806,1.9336
0.5058,1.8068,1.6878,1.9341
0.5177,1.8215,1.7066,1.9442
0.5298,1.8396,1.7263,1.9602
0.5422,1.8529,1.739,1.9743
0.5549,1.8576,1.7426,1.9803
0.5679,1.856,1.7397,1.9801
0.5812,1.8548,1.7374,1.98
0.5948,1.8596,1.7423,1.9847
0.6087,1.8719,1.7551,1.9966
0.6229,1.8904,1.7716,2.0172
0.6375,1.9134,1.79,2.0453
0.6525,1.9396,1.8131,2.0749
0.6677,1.9657,1.8412,2.0986
0.6834,1.9854,1.8676,2.1106
0.6994,1.994,1.885,2.1093
0.7157,1.9939,1.8906,2.1029
0.7325,1.9938,1.8885,2.1049
0.7496,2.001,1.8889,2.1197
0.7672,2.0156,1.8988,2.1395
0.7851,2.031,1.9155,2.1535
0.8035,2.042,1.9321,2.1582
0.8223,2.051,1.9463,2.1614
0.8416,2.0664,1.9647,2.1734
0.8613,2.0955,1.9966,2.1993
0.8815,2.1383,2.0414,2.2399
0.9021,2.1862,2.086,2.2911
0.9232,2.2246,2.1181,2.3365
0.9448,2.2409,2.1304,2.3572
0.9669,2.2321,2.1188,2.3515
0.9896,2.2069,2.0888,2.3317
1.0128,2.1797,2.0571,2.3095
1.0365,2.1622,2.0405,2.2911
1.0607,2.1593,2.0447,2.2803
1.0856,2.1699,2.062,2.2835
1.111,2.1908,2.0778,2.3099
1.137,2.2198,2.0881,2.3598
1.1636,2.2567,2.1034,2.4213
1.1908,2.2992,2.1308,2.4808
1.2187,2.3389,2.1663,2.5251
1.2473,2.3644,2.1968,2.5447
1.2765,2.3692,2.2095,2.5405
1.3063,2.3571,2.2021,2.5229
1.3369,2.3362,2.1842,2.4987
1.3682,2.3112,2.1645,2.4679
1.4003,2.2826,2.1398,2.4348
1.433,2.2521,2.1022,2.4126
1.4666,2.2259,2.0607,2.4044
1.5009,2.2101,2.0347,2.4006
1.5361,2.2029,2.0276,2.3935
1.572,2.1936,2.0195,2.3827
1.6088,2.1685,1.9844,2.3697
1.6465,2.1233,1.9186,2.3499
1.685,2.066,1.8405,2.3192
1.7245,2.0104,1.7705,2.2827
1.7649,1.9671,1.7198,2.25
1.8062,1.9408,1.6894,2.2296
1.8485,1.9308,1.6766,2.2235
1.8917,1.9331,1.6763,2.2291
1.936,1.9421,1.6814,2.2432
1.9813,1.952,1.6869,2.2588
2.0277,1.9588,1.693,2.2663
2.0752,1.9616,1.6988,2.2651
2.1238,1.9615,1.7002,2.2628
2.1735,1.9578,1.6953,2.2609
2.2244,1.9488,1.685,2.2538
2.2765,1.933,1.6683,2.2396
2.3298,1.9096,1.6421,2.2205
2.3843,1.8777,1.6069,2.1941
2.4401,1.8361,1.5672,2.151
2.4973,1.7845,1.5246,2.0887
2.5557,1.725,1.4746,2.0178
2.6155,1.6624,1.4154,1.9525
2.6768,1.6034,1.3534,1.8996
2.7395,1.5544,1.2971,1.8628
2.8036,1.5186,1.2517,1.8424
2.8692,1.495,1.2192,1.8332
2.9364,1.4797,1.198,1.8278
3.0051,1.4681,1.185,1.8188
3.0755,1.4563,1.1779,1.8006
3.1475,1.4421,1.1747,1.7704
3.2212,1.4245,1.1726,1.7306
3.2966,1.4042,1.1675,1.6891
3.3738,1.3827,1.1555,1.6547
3.4528,1.361,1.1355,1.6314
3.5336,1.3394,1.1101,1.6161
3.6163,1.3178,1.0836,1.6025
3.701,1.2967,1.0604,1.5857
3.7876,1.2772,1.0423,1.565
3.8763,1.2601,1.0281,1.5444
3.967,1.2462,1.0166,1.5275
4.0599,1.2352,1.0074,1.5146
4.155,1.2265,0.9999,1.5044
4.2522,1.2187,0.9916,1.4977
4.3518,1.2111,0.9815,1.4945
4.4537,1.2037,0.9706,1.4928
4.5579,1.1971,0.9613,1.4907
4.6647,1.1921,0.9548,1.4884
4.7739,1.1895,0.9512,1.4874
4.8856,1.1895,0.9503,1.4889
5.0,1.1922,0.9518,1.4932
