# hvsrpy output version 0.5.2
# File Name (),NA
# Method (),geometric-mean
# Azimuth (),0
# Window Length (s),1200.0
# Total Number of Windows (),72
# Frequency Domain Window Rejection Performed (),True
# Lower frequency limit for peaks (Hz),0.1
# Upper frequency limit for peaks (Hz),10.0
# Number of Standard Deviations Used for Rejection () [n],2
# Number of Accepted Windows (),69
# Number of Rejected Windows (),3
# Distribution of f0 (),lognormal
# Median f0 (Hz) [LMf0],6.9097
# Lognormal standard deviation f0 () [SigmaLNf0],0.0946
# 68 % Confidence Interval f0 (Hz),6.2858,to,7.5955
# Median T0 (s) [LMT0],0.1447
# Lognormal standard deviation T0 () [SigmaLNT0],0.0946
# 68 % Confidence Interval T0 (s),0.1317,to,0.1591
# Median Curve Distribution (),lognormal
# Median Curve Peak Frequency (Hz) [f0mc],6.3596
# Median Curve Peak Amplitude (),3.773
# Frequency (Hz),Median Curve,1 STD Below Median Curve,1 STD Above Median Curve
0.05,0.9994,0.7546,1.3237
0.0513,1.0085,0.7614,1.3357
0.0527,1.0128,0.7511,1.3657
0.0542,1.0197,0.7437,1.3982
0.0556,1.0343,0.7532,1.4204
0.0571,1.0535,0.7781,1.4263
0.0587,1.07,0.8013,1.4289
0.0602,1.0809,0.8066,1.4484
0.0619,1.0877,0.8005,1.4781
0.0635,1.0936,0.7987,1.4973
0.0653,1.1006,0.8065,1.5018
0.067,1.1111,0.82,1.5056
0.0688,1.1276,0.8373,1.5185
0.0707,1.1474,0.8578,1.5346
0.0726,1.1632,0.873,1.55
0.0745,1.1707,0.8766,1.5636
0.0766,1.1717,0.8731,1.5722
0.0786,1.1702,0.8715,1.5712
0.0807,1.1705,0.8762,1.5636
0.0829,1.1765,0.8842,1.5654
0.0852,1.1883,0.8866,1.5925
0.0875,1.2,0.8826,1.6316
0.0898,1.204,0.8788,1.6495
0.0922,1.1977,0.8776,1.6346
0.0947,1.1833,0.8768,1.5968
0.0973,1.1651,0.879,1.5443
0.0999,1.149,0.8914,1.4811
0.1026,1.1386,0.9121,1.4212
0.1054,1.1304,0.928,1.3771
0.1082,1.1186,0.9319,1.3427
0.1111,1.1014,0.9269,1.3088
0.1141,1.0815,0.9196,1.2719
0.1172,1.0608,0.9146,1.2303
0.1204,1.0398,0.9051,1.1944
0.1236,1.0206,0.8861,1.1755
0.127,1.0071,0.8704,1.1652
0.1304,1.0023,0.8702,1.1544
0.1339,1.0065,0.8832,1.1471
0.1375,1.0165,0.8983,1.1504
0.1412,1.028,0.9081,1.1638
0.145,1.0385,0.9146,1.1792
0.149,1.0478,0.9205,1.1926
0.153,1.0546,0.9263,1.2005
0.1571,1.0552,0.9306,1.1965
0.1613,1.0459,0.929,1.1775
0.1657,1.0254,0.9164,1.1474
0.1702,0.9968,0.8913,1.1147
0.1748,0.9665,0.8621,1.0836
0.1795,0.9423,0.8391,1.0581
0.1843,0.9281,0.826,1.043
0.1893,0.9231,0.8226,1.0358
0.1944,0.9224,0.824,1.0326
0.1996,0.9221,0.8234,1.0326
0.205,0.9216,0.8215,1.0339
0.2106,0.9243,0.8257,1.0347
0.2162,0.9353,0.8416,1.0393
0.2221,0.9592,0.8688,1.0591
0.2281,0.9986,0.9059,1.1007
0.2342,1.0491,0.952,1.1562
0.2405,1.0976,0.9966,1.2088
0.247,1.1261,1.0233,1.2393
0.2537,1.126,1.0233,1.239
0.2605,1.1046,1.0034,1.216
0.2676,1.077,0.9783,1.1857
0.2748,1.0531,0.9565,1.1595
0.2822,1.0358,0.9403,1.141
0.2898,1.0241,0.9316,1.1258
0.2976,1.016,0.9283,1.1119
0.3057,1.0083,0.9214,1.1034
0.3139,0.9994,0.9095,1.0981
0.3224,0.9934,0.903,1.0928
0.3311,0.9975,0.9097,1.0938
0.34,1.0139,0.9274,1.1084
0.3492,1.0355,0.9451,1.1346
0.3586,1.0522,0.956,1.158
0.3683,1.0594,0.9623,1.1664
0.3782,1.0613,0.9673,1.1646
0.3884,1.0639,0.9723,1.164
0.3989,1.0683,0.9767,1.1684
0.4097,1.0708,0.9783,1.1721
0.4207,1.0675,0.9756,1.1681
0.4321,1.0584,0.9695,1.1556
0.4437,1.0464,0.9619,1.1384
0.4557,1.0339,0.9535,1.1211
0.468,1.0214,0.943,1.1063
0.4806,1.0092,0.9307,1.0943
0.4936,0.9983,0.9187,1.0849
0.5069,0.9905,0.9092,1.079
0.5206,0.9875,0.9041,1.0786
0.5347,0.9903,0.9034,1.0857
0.5491,0.997,0.9052,1.0981
0.5639,1.0017,0.9063,1.1072
0.5791,0.9978,0.9017,1.1042
0.5947,0.9826,0.8878,1.0877
0.6108,0.9598,0.8655,1.0643
0.6273,0.9361,0.8395,1.0438
0.6442,0.9174,0.8165,1.0307
0.6616,0.9063,0.8007,1.0259
0.6794,0.9024,0.7915,1.0287
0.6978,0.9026,0.787,1.0353
0.7166,0.9034,0.7842,1.0406
0.7359,0.9016,0.7793,1.0432
0.7558,0.8965,0.7696,1.0442
0.7762,0.8891,0.7561,1.0455
0.7971,0.8824,0.7409,1.0511
0.8186,0.8784,0.7254,1.0637
0.8407,0.8754,0.7094,1.0803
0.8634,0.8692,0.6907,1.0938
0.8867,0.8577,0.6683,1.1006
0.9106,0.8433,0.6443,1.1038
0.9352,0.8304,0.6222,1.1082
0.9604,0.8201,0.6032,1.1148
0.9863,0.8091,0.5849,1.1192
1.0129,0.7938,0.5649,1.1156
1.0403,0.7745,0.5438,1.1032
1.0683,0.7546,0.5244,1.086
1.0972,0.737,0.5086,1.0679
1.1268,0.7217,0.496,1.05
1.1572,0.7077,0.485,1.0325
1.1884,0.6948,0.4749,1.0165
1.2205,0.684,0.4658,1.0044
1.2534,0.6762,0.4578,0.9987
1.2872,0.6714,0.4511,0.9992
1.3219,0.6695,0.4464,1.004
1.3576,0.67,0.444,1.0113
1.3942,0.6726,0.4429,1.0212
1.4319,0.6766,0.4428,1.034
1.4705,0.6818,0.4438,1.0475
1.5102,0.6876,0.4469,1.0577
1.5509,0.6931,0.4518,1.0633
1.5928,0.6984,0.4572,1.0668
1.6358,0.7043,0.4625,1.0724
1.6799,0.7125,0.4685,1.0835
1.7252,0.7243,0.4766,1.1005
1.7718,0.7393,0.4877,1.1207
1.8196,0.7564,0.5019,1.14
1.8687,0.7733,0.5183,1.1537
1.9191,0.7877,0.5355,1.1586
1.9709,0.7984,0.551,1.1569
2.0241,0.8061,0.563,1.1542
2.0787,0.814,0.573,1.1565
2.1348,0.8263,0.5836,1.1699
2.1924,0.8459,0.5976,1.1974
2.2515,0.8726,0.6162,1.2357
2.3123,0.9034,0.6387,1.2778
2.3747,0.9355,0.6639,1.318
2.4387,0.9682,0.6911,1.3564
2.5045,1.0026,0.7196,1.397
2.5721,1.0396,0.7503,1.4405
2.6415,1.0795,0.7856,1.4835
2.7128,1.1224,0.8259,1.5253
2.786,1.1679,0.8663,1.5745
2.8612,1.2149,0.902,1.6362
2.9384,1.2615,0.9323,1.7069
3.0176,1.3066,0.957,1.7839
3.0991,1.3494,0.9776,1.8624
3.1827,1.3885,0.9978,1.9322
3.2686,1.4232,1.0201,1.9856
3.3567,1.4539,1.0435,2.0256
3.4473,1.4803,1.0645,2.0586
3.5403,1.5013,1.0825,2.0821
3.6359,1.5168,1.0992,2.0931
3.734,1.5301,1.1152,2.0993
3.8347,1.5456,1.1303,2.1135
3.9382,1.5668,1.1443,2.1453
4.0444,1.5947,1.1603,2.1919
4.1536,1.6297,1.1829,2.2454
4.2656,1.6764,1.2164,2.3104
4.3807,1.7451,1.2667,2.404
4.4989,1.8471,1.3431,2.5401
4.6203,1.9852,1.4517,2.7148
4.745,2.146,1.5879,2.9004
4.873,2.3042,1.7313,3.0667
5.0045,2.4419,1.8561,3.2127
5.1396,2.5615,1.9549,3.3563
5.2782,2.6811,2.0489,3.5082
5.4207,2.8209,2.1669,3.6723
5.5669,2.991,2.3231,3.851
5.7171,3.1865,2.5098,4.0457
5.8714,3.3905,2.7052,4.2494
6.0298,3.5774,2.8899,4.4285
6.1925,3.7145,3.0459,4.5299
6.3596,3.773,3.1503,4.5189
6.5312,3.7526,3.1956,4.4067
6.7074,3.6925,3.2084,4.2497
6.8884,3.6434,3.223,4.1187
7.0743,3.6306,3.2527,4.0524
7.2651,3.6479,3.2911,4.0434
7.4612,3.6746,3.3234,4.0629
7.6625,3.6859,3.3341,4.0749
7.8692,3.6525,3.3002,4.0423
8.0816,3.5454,3.1948,3.9345
8.2996,3.3606,3.0241,3.7346
8.5236,3.1324,2.831,3.466
8.7536,2.9084,2.6522,3.1894
8.9898,2.7187,2.4989,2.9579
9.2323,2.5707,2.3676,2.7912
9.4814,2.459,2.2509,2.6864
9.7373,2.375,2.1452,2.6295
10.0,2.3108,2.0516,2.6027
