# hvsrpy output version 0.5.2
# File Name (),NA
# Method (),geometric-mean
# Azimuth (),0
# Window Length (s),1200.0
# Total Number of Windows (),72
# Frequency Domain Window Rejection Performed (),True
# Lower frequency limit for peaks (Hz),0.1
# Upper frequency limit for peaks (Hz),5.0
# Number of Standard Deviations Used for Rejection () [n],2
# Number of Accepted Windows (),72
# Number of Rejected Windows (),0
# Distribution of f0 (),lognormal
# Median f0 (Hz) [LMf0],0.7146
# Lognormal standard deviation f0 () [SigmaLNf0],0.6276
# 68 % Confidence Interval f0 (Hz),0.3815,to,1.3385
# Median T0 (s) [LMT0],1.3994
# Lognormal standard deviation T0 () [SigmaLNT0],0.6276
# 68 % Confidence Interval T0 (s),0.7471,to,2.6213
# Median Curve Distribution (),lognormal
# Median Curve Peak Frequency (Hz) [f0mc],0.4302
# Median Curve Peak Amplitude (),2.3382
# Frequency (Hz),Median Curve,1 STD Below Median Curve,1 STD Above Median Curve
0.05,1.3381,0.7121,2.5145
0.0512,1.3685,0.7176,2.6098
0.0524,1.4058,0.7238,2.7305
0.0536,1.4423,0.7326,2.8397
0.0548,1.4719,0.7461,2.9037
0.0561,1.4914,0.7644,2.9098
0.0574,1.5038,0.7877,2.8708
0.0588,1.5177,0.8179,2.8164
0.0602,1.5412,0.8558,2.7754
0.0616,1.5733,0.8968,2.7603
0.063,1.603,0.9296,2.7643
0.0645,1.6186,0.945,2.7723
0.066,1.6196,0.9449,2.7761
0.0675,1.6168,0.9399,2.7812
0.0691,1.6213,0.9406,2.7943
0.0707,1.6337,0.9491,2.812
0.0724,1.6427,0.9577,2.8175
0.0741,1.6325,0.9586,2.7803
0.0758,1.5996,0.9535,2.6834
0.0776,1.5569,0.9504,2.5503
0.0794,1.519,0.9538,2.419
0.0813,1.4894,0.9627,2.3043
0.0832,1.4636,0.9727,2.2022
0.0851,1.4388,0.9801,2.1121
0.0871,1.4172,0.9839,2.0414
0.0892,1.4005,0.9849,1.9916
0.0913,1.386,0.9823,1.9556
0.0934,1.3678,0.9729,1.9231
0.0956,1.341,0.9547,1.8836
0.0978,1.3026,0.9296,1.8254
0.1001,1.2542,0.9035,1.7412
0.1025,1.2035,0.885,1.6365
0.1049,1.1629,0.8835,1.5306
0.1073,1.1433,0.9009,1.4509
0.1098,1.1469,0.9309,1.413
0.1124,1.1678,0.9674,1.4099
0.115,1.197,1.0066,1.4235
0.1177,1.2245,1.0435,1.4368
0.1205,1.2405,1.071,1.4368
0.1233,1.2375,1.0801,1.4178
0.1262,1.2137,1.0661,1.3817
0.1291,1.1746,1.0341,1.3342
0.1322,1.1309,0.9968,1.2832
0.1352,1.0932,0.9657,1.2376
0.1384,1.0684,0.9477,1.2046
0.1417,1.0586,0.9442,1.1868
0.145,1.0621,0.9528,1.184
0.1484,1.0759,0.9674,1.1966
0.1518,1.0964,0.9835,1.2223
0.1554,1.1202,1.0018,1.2527
0.159,1.1447,1.0228,1.2811
0.1628,1.168,1.0449,1.3056
0.1666,1.1877,1.0641,1.3257
0.1705,1.2012,1.0749,1.3423
0.1745,1.2074,1.0764,1.3544
0.1785,1.2087,1.0741,1.3601
0.1827,1.2101,1.0744,1.363
0.187,1.2169,1.0832,1.3671
0.1914,1.2316,1.1048,1.3729
0.1959,1.254,1.1386,1.3811
0.2004,1.282,1.176,1.3976
0.2051,1.3132,1.2058,1.4301
0.2099,1.3452,1.2274,1.4743
0.2149,1.3758,1.2477,1.517
0.2199,1.402,1.2682,1.5498
0.225,1.4216,1.2857,1.5719
0.2303,1.4359,1.3007,1.5852
0.2357,1.4498,1.3168,1.5962
0.2412,1.4695,1.3344,1.6183
0.2469,1.4993,1.3532,1.6611
0.2526,1.54,1.378,1.7212
0.2585,1.5913,1.4155,1.7891
0.2646,1.6529,1.4697,1.859
0.2708,1.7234,1.5408,1.9276
0.2771,1.7966,1.6209,1.9914
0.2836,1.8615,1.6928,2.0471
0.2903,1.9082,1.7415,2.0909
0.2971,1.9364,1.7695,2.119
0.304,1.9571,1.7934,2.1358
0.3111,1.9832,1.8258,2.1541
0.3184,2.0192,1.8653,2.1859
0.3259,2.0596,1.9016,2.2307
0.3335,2.0948,1.931,2.2724
0.3413,2.1171,1.9527,2.2952
0.3493,2.1238,1.9609,2.3003
0.3575,2.1184,1.9536,2.2971
0.3658,2.1095,1.9421,2.2913
0.3744,2.1082,1.941,2.2897
0.3832,2.1242,1.9574,2.3053
0.3921,2.1622,1.9929,2.346
0.4013,2.2179,2.0467,2.4033
0.4107,2.2776,2.1084,2.4605
0.4203,2.3229,2.1535,2.5056
0.4302,2.3382,2.1615,2.5293
0.4402,2.3185,2.1339,2.519
0.4506,2.2705,2.0863,2.471
0.4611,2.2068,2.0303,2.3986
0.4719,2.139,1.9706,2.3218
0.4829,2.0757,1.9145,2.2505
0.4942,2.0229,1.8698,2.1885
0.5058,1.9843,1.8382,2.142
0.5177,1.9596,1.8135,2.1173
0.5298,1.9426,1.7888,2.1096
0.5422,1.9237,1.7633,2.0986
0.5549,1.8953,1.7392,2.0655
0.5679,1.8561,1.7136,2.0105
0.5812,1.8107,1.6818,1.9495
0.5948,1.7665,1.6441,1.898
0.6087,1.7302,1.6083,1.8613
0.6229,1.7067,1.5834,1.8396
0.6375,1.6991,1.5721,1.8363
0.6525,1.7086,1.5737,1.8551
0.6677,1.7343,1.5903,1.8913
0.6834,1.7725,1.6206,1.9387
0.6994,1.8173,1.6554,1.9951
0.7157,1.8625,1.6871,2.0561
0.7325,1.9046,1.7168,2.1129
0.7496,1.9435,1.7468,2.1623
0.7672,1.979,1.7731,2.2088
0.7851,2.0071,1.7877,2.2535
0.8035,2.0211,1.7868,2.2861
0.8223,2.0171,1.7737,2.2939
0.8416,2.0007,1.7561,2.2793
0.8613,1.9856,1.7444,2.2602
0.8815,1.9867,1.7504,2.2549
0.9021,2.0111,1.7807,2.2713
0.9232,2.0548,1.8323,2.3043
0.9448,2.1057,1.8929,2.3423
0.9669,2.1513,1.9468,2.3773
0.9896,2.1852,1.9816,2.4097
1.0128,2.2058,1.9936,2.4407
1.0365,2.2125,1.9876,2.4628
1.0607,2.2041,1.9694,2.4667
1.0856,2.1812,1.9384,2.4543
1.111,2.1472,1.892,2.4368
1.137,2.1067,1.8342,2.4198
1.1636,2.0638,1.779,2.3942
1.1908,2.0234,1.7403,2.3524
1.2187,1.9918,1.7213,2.3047
1.2473,1.9752,1.7183,2.2706
1.2765,1.9761,1.7261,2.2624
1.3063,1.9908,1.7361,2.2828
1.3369,2.0111,1.7372,2.3282
1.3682,2.0297,1.7259,2.3871
1.4003,2.044,1.7079,2.4461
1.433,2.0554,1.6915,2.4975
1.4666,2.0673,1.6839,2.538
1.5009,2.0825,1.6902,2.5659
1.5361,2.101,1.7117,2.5789
1.572,2.1193,1.7429,2.577
1.6088,2.1311,1.7725,2.5623
1.6465,2.1299,1.7895,2.5351
1.685,2.1128,1.7872,2.4978
1.7245,2.0843,1.7643,2.4624
1.7649,2.0541,1.7283,2.4412
1.8062,2.031,1.6921,2.4377
1.8485,2.0173,1.6636,2.4463
1.8917,2.0082,1.643,2.4545
1.936,1.9947,1.6253,2.4481
1.9813,1.9692,1.604,2.4176
2.0277,1.928,1.574,2.3616
2.0752,1.8726,1.5337,2.2863
2.1238,1.81,1.4861,2.2045
2.1735,1.7509,1.4373,2.1329
2.2244,1.7043,1.3954,2.0818
2.2765,1.6731,1.3671,2.0477
2.3298,1.6539,1.3524,2.0227
2.3843,1.6407,1.3429,2.0045
2.4401,1.6273,1.3293,1.9922
2.4973,1.6095,1.3075,1.9811
2.5557,1.5856,1.2789,1.9658
2.6155,1.5567,1.2464,1.9443
2.6768,1.5247,1.2121,1.9179
2.7395,1.4909,1.1771,1.8883
2.8036,1.4554,1.1415,1.8556
2.8692,1.4182,1.106,1.8186
2.9364,1.3791,1.0712,1.7755
3.0051,1.3379,1.037,1.7261
3.0755,1.2949,1.0028,1.672
3.1475,1.2512,0.969,1.6155
3.2212,1.2094,0.9379,1.5595
3.2966,1.1729,0.9122,1.5082
3.3738,1.1436,0.8924,1.4656
3.4528,1.1209,0.8775,1.4318
3.5336,1.1018,0.8648,1.4038
3.6163,1.0831,0.8508,1.3788
3.701,1.0634,0.8335,1.3567
3.7876,1.0434,0.8144,1.3367
3.8763,1.0243,0.7977,1.3153
3.967,1.0068,0.7865,1.2888
4.0599,0.9914,0.7813,1.258
4.155,0.9788,0.7801,1.2281
4.2522,0.9696,0.7801,1.2051
4.3518,0.9641,0.7786,1.1939
4.4537,0.9629,0.7754,1.1957
4.5579,0.966,0.7729,1.2072
4.6647,0.9729,0.7747,1.222
4.7739,0.9823,0.7817,1.2345
4.8856,0.9925,0.7927,1.2427
5.0,1.0023,0.8057,1.2468
