# hvsrpy output version 0.5.2
# File Name (),NA
# Method (),geometric-mean
# Azimuth (),0
# Window Length (s),1200.0
# Total Number of Windows (),72
# Frequency Domain Window Rejection Performed (),True
# Lower frequency limit for peaks (Hz),0.1
# Upper frequency limit for peaks (Hz),5.0
# Number of Standard Deviations Used for Rejection () [n],2
# Number of Accepted Windows (),72
# Number of Rejected Windows (),0
# Distribution of f0 (),lognormal
# Median f0 (Hz) [LMf0],1.4647
# Lognormal standard deviation f0 () [SigmaLNf0],0.2905
# 68 % Confidence Interval f0 (Hz),1.0954,to,1.9584
# Median T0 (s) [LMT0],0.6827
# Lognormal standard deviation T0 () [SigmaLNT0],0.2905
# 68 % Confidence Interval T0 (s),0.5106,to,0.9129
# Median Curve Distribution (),lognormal
# Median Curve Peak Frequency (Hz) [f0mc],1.3063
# Median Curve Peak Amplitude (),2.3716
# Frequency (Hz),Median Curve,1 STD Below Median Curve,1 STD Above Median Curve
0.05,2.1872,1.3148,3.6385
0.0512,2.3393,1.411,3.8781
0.0524,2.5105,1.5259,4.1304
0.0536,2.6958,1.6717,4.347
0.0548,2.8756,1.8426,4.4877
0.0561,3.0137,2.0071,4.5251
0.0574,3.0751,2.1158,4.4693
0.0588,3.0582,2.1336,4.3836
0.0602,2.9957,2.0788,4.3169
0.0616,2.9244,2.0053,4.2647
0.063,2.8624,1.951,4.1997
0.0645,2.8127,1.9242,4.1116
0.066,2.7761,1.9176,4.0188
0.0675,2.7447,1.9199,3.924
0.0691,2.6936,1.9113,3.7962
0.0707,2.5952,1.8669,3.6077
0.0724,2.4423,1.7779,3.3551
0.0741,2.2526,1.6569,3.0626
0.0758,2.0573,1.5302,2.766
0.0776,1.8814,1.421,2.4908
0.0794,1.7346,1.3348,2.2541
0.0813,1.6167,1.2646,2.0668
0.0832,1.5236,1.2031,1.9295
0.0851,1.4492,1.147,1.831
0.0871,1.3854,1.0966,1.7502
0.0892,1.3239,1.0507,1.6682
0.0913,1.2596,1.0068,1.576
0.0934,1.193,0.9644,1.4757
0.0956,1.1305,0.9267,1.379
0.0978,1.0814,0.8999,1.2995
0.1001,1.0536,0.8895,1.2479
0.1025,1.051,0.8965,1.232
0.1049,1.0713,0.917,1.2514
0.1073,1.1071,0.9477,1.2934
0.1098,1.1495,0.9851,1.3413
0.1124,1.1898,1.0214,1.3861
0.115,1.2214,1.0483,1.4231
0.1177,1.2402,1.0624,1.4478
0.1205,1.2458,1.0652,1.4571
0.1233,1.2408,1.0616,1.4502
0.1262,1.2302,1.0571,1.4318
0.1291,1.2209,1.0543,1.4139
0.1322,1.2187,1.0558,1.4068
0.1352,1.2266,1.0659,1.4115
0.1384,1.2441,1.087,1.4239
0.1417,1.2678,1.1178,1.4381
0.145,1.2936,1.1555,1.4482
0.1484,1.3183,1.1922,1.4577
0.1518,1.34,1.2175,1.4749
0.1554,1.3555,1.2304,1.4933
0.159,1.3607,1.2336,1.5009
0.1628,1.354,1.2236,1.4983
0.1666,1.3371,1.1993,1.4906
0.1705,1.3135,1.1691,1.4758
0.1745,1.2873,1.1426,1.4504
0.1785,1.2621,1.1256,1.4151
0.1827,1.2405,1.1181,1.3762
0.187,1.2237,1.1151,1.3429
0.1914,1.2115,1.1092,1.3234
0.1959,1.203,1.0971,1.3192
0.2004,1.1987,1.0852,1.324
0.2051,1.2007,1.0813,1.3332
0.2099,1.2116,1.0883,1.3488
0.2149,1.2317,1.105,1.3729
0.2199,1.2576,1.1297,1.4
0.225,1.2835,1.1593,1.421
0.2303,1.3037,1.1867,1.4322
0.2357,1.3153,1.2023,1.4389
0.2412,1.3198,1.2045,1.4461
0.2469,1.3224,1.2036,1.453
0.2526,1.3312,1.2129,1.461
0.2585,1.3536,1.2402,1.4773
0.2646,1.3935,1.2851,1.5109
0.2708,1.4493,1.3409,1.5664
0.2771,1.5148,1.3991,1.64
0.2836,1.5817,1.4545,1.72
0.2903,1.6433,1.5042,1.7953
0.2971,1.6967,1.5487,1.8589
0.304,1.7424,1.5918,1.9074
0.3111,1.7807,1.6352,1.9391
0.3184,1.8083,1.671,1.9568
0.3259,1.8188,1.684,1.9645
0.3335,1.8079,1.6711,1.9558
0.3413,1.7782,1.6464,1.9206
0.3493,1.7396,1.6227,1.865
0.3575,1.7042,1.6024,1.8124
0.3658,1.681,1.5837,1.7843
0.3744,1.6744,1.5722,1.7833
0.3832,1.6844,1.5748,1.8017
0.3921,1.7085,1.592,1.8336
0.4013,1.7435,1.6209,1.8753
0.4107,1.7847,1.6576,1.9214
0.4203,1.8252,1.6967,1.9635
0.4302,1.8565,1.7281,1.9945
0.4402,1.8715,1.7416,2.011
0.4506,1.8674,1.7347,2.0103
0.4611,1.848,1.715,1.9914
0.4719,1.8221,1.6935,1.9604
0.4829,1.801,1.6784,1.9325
0.4942,1.7939,1.6737,1.9226
0.5058,1.8032,1.6818,1.9335
0.5177,1.8241,1.7012,1.9559
0.5298,1.8472,1.7236,1.9797
0.5422,1.864,1.7391,1.9978
0.5549,1.871,1.7462,2.0046
0.5679,1.8715,1.7529,1.998
0.5812,1.8729,1.7663,1.986
0.5948,1.8821,1.7842,1.9853
0.6087,1.9017,1.8023,2.0066
0.6229,1.9305,1.8239,2.0433
0.6375,1.9652,1.8525,2.0848
0.6525,2.0021,1.8855,2.1259
0.6677,2.036,1.9173,2.1621
0.6834,2.0609,1.9425,2.1866
0.6994,2.0737,1.9559,2.1987
0.7157,2.0791,1.9584,2.2071
0.7325,2.0867,1.9611,2.2203
0.7496,2.1036,1.9748,2.2408
0.7672,2.128,1.9997,2.2646
0.7851,2.1514,2.0284,2.2817
0.8035,2.1666,2.0522,2.2873
0.8223,2.1743,2.0615,2.2933
0.8416,2.1813,2.0564,2.3138
0.8613,2.1943,2.0537,2.3446
0.8815,2.2155,2.0665,2.3753
0.9021,2.2412,2.0938,2.399
0.9232,2.2628,2.1263,2.4081
0.9448,2.2696,2.1495,2.3965
0.9669,2.2546,2.146,2.3688
0.9896,2.2203,2.1092,2.3372
1.0128,2.179,2.0581,2.307
1.0365,2.1463,2.0169,2.2839
1.0607,2.1327,1.9954,2.2795
1.0856,2.1407,1.9899,2.3028
1.111,2.1658,1.9942,2.3522
1.137,2.2015,2.0092,2.4123
1.1636,2.2424,2.0399,2.465
1.1908,2.2845,2.0794,2.5098
1.2187,2.3231,2.1028,2.5664
1.2473,2.352,2.1008,2.6332
1.2765,2.3676,2.0979,2.6719
1.3063,2.3716,2.1139,2.6606
1.3369,2.3686,2.1453,2.6151
1.3682,2.362,2.1732,2.5672
1.4003,2.3528,2.1788,2.5407
1.433,2.3412,2.1614,2.5359
1.4666,2.3274,2.1339,2.5385
1.5009,2.3112,2.1027,2.5404
1.5361,2.2904,2.064,2.5416
1.572,2.2615,2.0125,2.5414
1.6088,2.224,1.9505,2.536
1.6465,2.1838,1.8894,2.5241
1.685,2.1515,1.8432,2.5113
1.7245,2.1359,1.8204,2.5061
1.7649,2.1391,1.8199,2.5144
1.8062,2.156,1.8324,2.5368
1.8485,2.1776,1.8449,2.5703
1.8917,2.195,1.8446,2.6119
1.936,2.2025,1.8259,2.6567
1.9813,2.199,1.7944,2.6949
2.0277,2.1869,1.7604,2.7169
2.0752,2.1682,1.729,2.7189
2.1238,2.1424,1.698,2.7032
2.1735,2.1081,1.6625,2.673
2.2244,2.0652,1.622,2.6293
2.2765,2.0169,1.5805,2.5738
2.3298,1.9686,1.5434,2.511
2.3843,1.925,1.5139,2.4477
2.4401,1.8867,1.4903,2.3885
2.4973,1.8491,1.4653,2.3335
2.5557,1.8048,1.4319,2.2749
2.6155,1.7501,1.3919,2.2004
2.6768,1.6885,1.3528,2.1075
2.7395,1.6286,1.3216,2.0068
2.8036,1.5776,1.3013,1.9126
2.8692,1.5385,1.2883,1.8374
2.9364,1.5098,1.2759,1.7866
3.0051,1.4875,1.2606,1.7552
3.0755,1.4672,1.2419,1.7333
3.1475,1.446,1.2204,1.7132
3.2212,1.4225,1.1972,1.6903
3.2966,1.3972,1.1741,1.6627
3.3738,1.3716,1.1532,1.6313
3.4528,1.3475,1.1342,1.6009
3.5336,1.3262,1.114,1.5788
3.6163,1.3076,1.0908,1.5675
3.701,1.2915,1.0667,1.5637
3.7876,1.2784,1.0451,1.5639
3.8763,1.2693,1.0279,1.5673
3.967,1.2641,1.0156,1.5733
4.0599,1.2619,1.0078,1.58
4.155,1.2616,1.0034,1.5863
4.2522,1.2628,1.0014,1.5925
4.3518,1.2658,1.0019,1.5992
4.4537,1.2705,1.0045,1.6069
4.5579,1.2763,1.0083,1.6155
4.6647,1.2821,1.0117,1.6248
4.7739,1.2867,1.0132,1.6341
4.8856,1.2893,1.0125,1.6419
5.0,1.2902,1.0111,1.6463
