# hvsrpy output version 0.5.2
# File Name (),NA
# Method (),geometric-mean
# Azimuth (),0
# Window Length (s),1200.0
# Total Number of Windows (),72
# Frequency Domain Window Rejection Performed (),True
# Lower frequency limit for peaks (Hz),0.1
# Upper frequency limit for peaks (Hz),10.0
# Number of Standard Deviations Used for Rejection () [n],2
# Number of Accepted Windows (),59
# Number of Rejected Windows (),13
# Distribution of f0 (),lognormal
# Median f0 (Hz) [LMf0],6.5667
# Lognormal standard deviation f0 () [SigmaLNf0],0.0184
# 68 % Confidence Interval f0 (Hz),6.4472,to,6.6883
# Median T0 (s) [LMT0],0.1523
# Lognormal standard deviation T0 () [SigmaLNT0],0.0184
# 68 % Confidence Interval T0 (s),0.1495,to,0.1551
# Median Curve Distribution (),lognormal
# Median Curve Peak Frequency (Hz) [f0mc],6.5312
# Median Curve Peak Amplitude (),4.7087
# Frequency (Hz),Median Curve,1 STD Below Median Curve,1 STD Above Median Curve
0.05,1.1124,0.835,1.4819
0.0513,1.1077,0.8214,1.4938
0.0527,1.1024,0.8106,1.4991
0.0542,1.1003,0.8031,1.5076
0.0556,1.1018,0.7984,1.5205
0.0571,1.1028,0.7968,1.5263
0.0587,1.0982,0.7935,1.5197
0.0602,1.0844,0.7832,1.5014
0.0619,1.067,0.7754,1.4683
0.0635,1.0556,0.7768,1.4345
0.0653,1.0512,0.7833,1.4107
0.067,1.0476,0.7907,1.388
0.0688,1.0425,0.7976,1.3628
0.0707,1.0396,0.7977,1.3547
0.0726,1.0403,0.7907,1.3687
0.0745,1.0405,0.7862,1.3771
0.0766,1.0368,0.787,1.366
0.0786,1.0312,0.789,1.3478
0.0807,1.0259,0.7893,1.3335
0.0829,1.0194,0.7846,1.3246
0.0852,1.0103,0.7746,1.3176
0.0875,1.0003,0.7625,1.3123
0.0898,0.9912,0.7499,1.3102
0.0922,0.9834,0.7368,1.3126
0.0947,0.9783,0.7254,1.3193
0.0973,0.9767,0.722,1.3212
0.0999,0.9777,0.7319,1.3061
0.1026,0.9806,0.7543,1.2747
0.1054,0.9852,0.7838,1.2383
0.1082,0.9903,0.8128,1.2067
0.1111,0.9944,0.8356,1.1834
0.1141,0.9982,0.8527,1.1685
0.1172,1.005,0.8648,1.1679
0.1204,1.0158,0.8745,1.1798
0.1236,1.0273,0.887,1.1897
0.127,1.0353,0.9027,1.1874
0.1304,1.0381,0.916,1.1765
0.1339,1.0381,0.9211,1.17
0.1375,1.0408,0.9219,1.175
0.1412,1.0495,0.9299,1.1844
0.145,1.0622,0.9451,1.1939
0.149,1.0737,0.9526,1.2102
0.153,1.0807,0.9506,1.2286
0.1571,1.0838,0.9509,1.2353
0.1613,1.0832,0.9551,1.2284
0.1657,1.076,0.9534,1.2144
0.1702,1.0595,0.9403,1.1938
0.1748,1.0346,0.9219,1.161
0.1795,1.0073,0.9052,1.1209
0.1843,0.9856,0.8917,1.0894
0.1893,0.9758,0.8833,1.078
0.1944,0.9789,0.8835,1.0845
0.1996,0.9888,0.8904,1.0981
0.205,0.9976,0.895,1.112
0.2106,1.005,0.8952,1.1282
0.2162,1.0191,0.9055,1.1468
0.2221,1.0484,0.9389,1.1706
0.2281,1.0922,0.9908,1.204
0.2342,1.1386,1.0429,1.243
0.2405,1.1707,1.0785,1.2707
0.247,1.1787,1.09,1.2746
0.2537,1.1649,1.0782,1.2585
0.2605,1.1385,1.0521,1.2319
0.2676,1.108,1.0224,1.2007
0.2748,1.0794,0.9969,1.1689
0.2822,1.0582,0.9786,1.1443
0.2898,1.0483,0.9677,1.1357
0.2976,1.0496,0.9632,1.1437
0.3057,1.0574,0.9629,1.1611
0.3139,1.0662,0.9673,1.1753
0.3224,1.0741,0.9808,1.1763
0.3311,1.083,1.0034,1.1689
0.34,1.0955,1.0237,1.1724
0.3492,1.1106,1.033,1.194
0.3586,1.1229,1.0383,1.2145
0.3683,1.128,1.042,1.221
0.3782,1.1261,1.0404,1.2188
0.3884,1.1216,1.0358,1.2144
0.3989,1.1178,1.0353,1.2069
0.4097,1.1147,1.0376,1.1975
0.4207,1.109,1.0335,1.1902
0.4321,1.0982,1.0193,1.1831
0.4437,1.082,1.0007,1.1698
0.4557,1.0626,0.9825,1.1493
0.468,1.0432,0.9664,1.1261
0.4806,1.0276,0.9544,1.1064
0.4936,1.0186,0.9496,1.0927
0.5069,1.0167,0.952,1.0858
0.5206,1.0198,0.9564,1.0874
0.5347,1.0258,0.9597,1.0965
0.5491,1.0333,0.9645,1.107
0.5639,1.0402,0.971,1.1144
0.5791,1.0429,0.9735,1.1173
0.5947,1.0384,0.9681,1.1137
0.6108,1.0273,0.9575,1.1021
0.6273,1.0143,0.9459,1.0876
0.6442,1.0044,0.9352,1.0788
0.6616,0.9997,0.9256,1.0797
0.6794,0.998,0.9149,1.0887
0.6978,0.9955,0.9013,1.0995
0.7166,0.9899,0.8879,1.1036
0.7359,0.9825,0.8797,1.0972
0.7558,0.9764,0.8801,1.0831
0.7762,0.9745,0.8893,1.0678
0.7971,0.9777,0.9033,1.0582
0.8186,0.9843,0.9144,1.0596
0.8407,0.9911,0.9173,1.0707
0.8634,0.996,0.9159,1.0832
0.8867,1.0,0.915,1.093
0.9106,1.0059,0.9161,1.1045
0.9352,1.015,0.9179,1.1224
0.9604,1.0247,0.9169,1.1453
0.9863,1.0291,0.9086,1.1656
1.0129,1.0243,0.8933,1.1744
1.0403,1.0121,0.8765,1.1687
1.0683,0.9987,0.8634,1.1552
1.0972,0.9883,0.8546,1.1429
1.1268,0.9808,0.8483,1.1339
1.1572,0.9737,0.842,1.1261
1.1884,0.9667,0.8341,1.1204
1.2205,0.9615,0.8255,1.12
1.2534,0.9596,0.8161,1.1283
1.2872,0.96,0.8064,1.143
1.3219,0.9605,0.7989,1.1547
1.3576,0.9584,0.7939,1.157
1.3942,0.9527,0.7885,1.1512
1.4319,0.9446,0.7814,1.1419
1.4705,0.937,0.776,1.1314
1.5102,0.9312,0.7748,1.1192
1.5509,0.9251,0.7748,1.1046
1.5928,0.9161,0.7711,1.0884
1.6358,0.9061,0.7633,1.0756
1.6799,0.9022,0.7567,1.0756
1.7252,0.9108,0.7545,1.0996
1.7718,0.9335,0.7591,1.1479
1.8196,0.9676,0.7745,1.2087
1.8687,1.0082,0.799,1.272
1.9191,1.0495,0.8271,1.3316
1.9709,1.0856,0.8548,1.3785
2.0241,1.1116,0.8807,1.403
2.0787,1.1249,0.9031,1.401
2.1348,1.1265,0.9201,1.3792
2.1924,1.1212,0.9317,1.3494
2.2515,1.1141,0.9391,1.3216
2.3123,1.1098,0.9444,1.304
2.3747,1.1133,0.9549,1.298
2.4387,1.1292,0.982,1.2983
2.5045,1.1591,1.0262,1.3092
2.5721,1.2015,1.07,1.3491
2.6415,1.2507,1.1027,1.4185
2.7128,1.2993,1.1333,1.4896
2.786,1.3404,1.1646,1.5427
2.8612,1.3709,1.1913,1.5777
2.9384,1.3948,1.2106,1.607
3.0176,1.4205,1.2275,1.6439
3.0991,1.4527,1.2515,1.6862
3.1827,1.4867,1.2875,1.7168
3.2686,1.514,1.3285,1.7255
3.3567,1.5318,1.3644,1.7197
3.4473,1.5485,1.3949,1.719
3.5403,1.5767,1.4252,1.7442
3.6359,1.6207,1.462,1.7966
3.734,1.6764,1.5127,1.8579
3.8347,1.7417,1.5775,1.923
3.9382,1.8218,1.6536,2.0071
4.0444,1.9234,1.7478,2.1168
4.1536,2.043,1.8624,2.2411
4.2656,2.1616,1.9706,2.371
4.3807,2.2551,2.0363,2.4975
4.4989,2.3177,2.0665,2.5994
4.6203,2.3699,2.0988,2.676
4.745,2.4384,2.1599,2.7529
4.873,2.5305,2.2474,2.8493
5.0045,2.631,2.3342,2.9655
5.1396,2.7191,2.3999,3.0807
5.2782,2.7915,2.4575,3.1709
5.4207,2.875,2.5416,3.2522
5.5669,3.0146,2.682,3.3883
5.7171,3.2469,2.888,3.6504
5.8714,3.5774,3.16,4.0501
6.0298,3.9689,3.486,4.5187
6.1925,4.3436,3.8056,4.9576
6.3596,4.6088,4.0385,5.2596
6.5312,4.7087,4.1494,5.3434
6.7074,4.6582,4.1456,5.2341
6.8884,4.5233,4.0579,5.042
7.0743,4.3742,3.9325,4.8656
7.2651,4.2505,3.8075,4.745
7.4612,4.1529,3.691,4.6727
7.6625,4.0643,3.5774,4.6175
7.8692,3.9708,3.4634,4.5526
8.0816,3.8586,3.3395,4.4585
8.2996,3.7,3.1842,4.2994
8.5236,3.4703,2.9827,4.0376
8.7536,3.1877,2.7483,3.6975
8.9898,2.9147,2.5205,3.3705
9.2323,2.7065,2.3369,3.1345
9.4814,2.578,2.2121,3.0044
9.7373,2.5143,2.1398,2.9544
10.0,2.4921,2.1024,2.9542
